Lambda11(-),Lambda22(-),Sigma11(MPa),Sigma22(MPa)
1.000000,1.000000,0.000000,0.000000
1.616286,2.031482,-0.000127,-0.000319
1.615992,2.031879,0.000138,-0.000236
1.616539,2.032344,0.000207,-0.000170
1.619938,2.032912,0.000263,-0.000057
1.620494,2.033584,0.000189,-0.000195
1.621016,2.034248,0.000191,-0.000213
1.621523,2.034986,0.000236,-0.000229
1.622293,2.035830,0.000331,-0.000185
1.622973,2.036538,0.000332,-0.000141
1.623447,2.037014,0.000428,-0.000141
1.624656,2.037483,0.000674,-0.000056
1.627007,2.039649,0.000880,0.000028
1.629967,2.041065,0.000977,0.000172
1.631824,2.042247,0.001116,0.000130
1.632455,2.043975,0.001160,0.000086
1.633808,2.044509,0.001299,0.000173
1.634379,2.045213,0.001301,0.000304
1.635100,2.045780,0.001302,0.000392
1.636002,2.046575,0.001359,0.000349
1.636824,2.048094,0.001554,0.000537
1.638164,2.047664,0.001652,0.000638
1.639738,2.048289,0.001709,0.000827
1.641199,2.048967,0.001753,0.001003
1.642469,2.049097,0.001810,0.001092
1.643070,2.049409,0.001909,0.001224
1.644259,2.050593,0.001911,0.001370
1.644805,2.053161,0.001955,0.001604
1.646455,2.053150,0.001999,0.001650
1.646630,2.054597,0.002002,0.001872
1.648073,2.054914,0.001962,0.002326
1.648779,2.056136,0.001922,0.002460
1.649024,2.057575,0.001925,0.002463
1.649933,2.058108,0.002025,0.002553
1.649885,2.059973,0.002069,0.002820
1.649741,2.061177,0.002029,0.002999
1.651876,2.064011,0.002074,0.003133
1.652241,2.065351,0.002118,0.003180
1.652368,2.064741,0.002178,0.003273
1.652998,2.066812,0.002322,0.003409
1.653772,2.068068,0.002382,0.003457
1.654936,2.070060,0.002427,0.003548
1.655885,2.071557,0.002429,0.003552
1.657612,2.071650,0.002432,0.003599
1.657584,2.074138,0.002435,0.003558
1.657789,2.075901,0.002480,0.003430
1.658937,2.076879,0.002582,0.003479
1.660969,2.078972,0.002585,0.003572
1.661267,2.080029,0.002588,0.003575
1.661182,2.080387,0.002590,0.003490
1.662422,2.081792,0.002635,0.003449
1.665003,2.084075,0.002638,0.003498
1.666089,2.085930,0.002699,0.003546
1.666785,2.088028,0.002644,0.003461
1.668229,2.089253,0.002547,0.003375
1.668368,2.091015,0.002492,0.003379
1.669426,2.094031,0.002553,0.003473
1.669699,2.094784,0.002614,0.003476
1.670297,2.097706,0.002617,0.003480
1.671321,2.098834,0.002619,0.003483
1.671796,2.101393,0.002680,0.003533
1.672242,2.103985,0.002625,0.003492
1.674674,2.105141,0.002731,0.003542
1.676028,2.108958,0.002733,0.003545
1.676550,2.111537,0.002795,0.003595
1.677659,2.113437,0.002900,0.003691
1.679383,2.115091,0.003065,0.003787
1.679946,2.118727,0.003068,0.003791
1.680392,2.121366,0.003071,0.003795
1.681577,2.124095,0.003074,0.003844
1.682115,2.125601,0.003239,0.003986
1.684557,2.128181,0.003390,0.003991
1.685551,2.132768,0.003394,0.004041
1.686665,2.134389,0.003396,0.004044
1.687561,2.136896,0.003503,0.004141
1.688421,2.139537,0.003610,0.004238
1.689035,2.142052,0.003717,0.004335
1.690083,2.146104,0.003617,0.004247
1.690600,2.147511,0.003620,0.004251
1.693157,2.150289,0.003668,0.004302
1.694448,2.152270,0.003777,0.004400
1.695547,2.155595,0.003783,0.004406
1.697468,2.159881,0.003787,0.004458
1.698261,2.161933,0.003850,0.004649
1.699021,2.164229,0.003957,0.004794
1.700634,2.166486,0.004008,0.004847
1.703019,2.169406,0.003969,0.004899
1.705058,2.175224,0.003912,0.004950
1.706458,2.177260,0.004020,0.005095
1.707117,2.179413,0.004085,0.005399
1.708071,2.181860,0.004136,0.005562
1.709921,2.184534,0.004140,0.005663
1.711699,2.186595,0.004143,0.005903
1.713780,2.189857,0.004206,0.006254
1.714497,2.190238,0.004272,0.006464
1.716104,2.194378,0.004339,0.006629
1.716874,2.197110,0.004390,0.006841
1.718391,2.200263,0.004332,0.007052
1.721814,2.202352,0.004550,0.007266
1.723757,2.205103,0.004783,0.007432
1.725084,2.207987,0.004789,0.007646
1.727640,2.210747,0.004841,0.007811
1.728869,2.213629,0.005119,0.008119
1.729944,2.217510,0.005231,0.008381
1.732434,2.222795,0.005451,0.008391
1.734590,2.225908,0.005626,0.008495
1.737193,2.229167,0.005907,0.008663
1.738127,2.231156,0.006356,0.008831
1.739389,2.234670,0.006745,0.008889
1.741979,2.237893,0.007028,0.008994
1.745029,2.240388,0.007205,0.009051
1.746484,2.244028,0.007443,0.009109
1.747656,2.244314,0.007894,0.009215
1.748444,2.248024,0.008072,0.009273
1.750935,2.250373,0.008189,0.009428
1.753089,2.255405,0.008428,0.009439
1.755058,2.258868,0.008668,0.009545
1.758191,2.261445,0.008846,0.009604
1.759317,2.262789,0.009133,0.009761
1.761846,2.266848,0.009315,0.009869
1.764405,2.269081,0.009387,0.009929
1.765505,2.272896,0.009458,0.009939
1.767812,2.276380,0.009578,0.009999
1.769618,2.280314,0.009745,0.010156
1.772226,2.282956,0.009912,0.010313
1.774749,2.285999,0.009922,0.010373
1.775911,2.289584,0.009933,0.010531
1.778702,2.292395,0.010100,0.010787
1.782270,2.296820,0.010394,0.010995
1.783990,2.299694,0.010735,0.011270
1.785515,2.300937,0.011140,0.011642
1.787532,2.304132,0.011593,0.012015
1.789348,2.306323,0.011999,0.012340
1.792775,2.309022,0.012358,0.012567
1.795536,2.312622,0.012656,0.012893
1.798560,2.317073,0.013111,0.013269
1.800781,2.321488,0.013567,0.013694
1.801981,2.325448,0.014025,0.014170
1.804588,2.329779,0.014501,0.014549
1.807069,2.331599,0.014976,0.015077
1.809769,2.333708,0.015784,0.015753
1.812094,2.337097,0.016593,0.016332
1.813688,2.343090,0.017133,0.016764
1.816217,2.345972,0.017549,0.017195
1.819980,2.349505,0.017965,0.017663
1.821412,2.353723,0.018496,0.018131
1.823849,2.357631,0.018980,0.018667
1.826064,2.360208,0.019511,0.019304
1.827762,2.361069,0.020269,0.019992
1.829594,2.363194,0.021205,0.020782
1.833831,2.366961,0.022143,0.021624
1.835617,2.372881,0.023033,0.022584
1.838209,2.375694,0.023975,0.023446
1.840285,2.379396,0.024805,0.024310
1.842710,2.383931,0.025638,0.025076
1.843535,2.386629,0.026637,0.026047
1.846384,2.388995,0.027816,0.027121
1.849879,2.392273,0.029285,0.028362
1.851817,2.395710,0.030918,0.029758
1.854093,2.401764,0.032635,0.031056
1.857167,2.404935,0.034455,0.032627
1.859252,2.407999,0.036457,0.034388
1.862551,2.415070,0.038755,0.036204
1.866772,2.416665,0.041174,0.038348
1.869104,2.419745,0.043714,0.040565
1.871052,2.421765,0.046503,0.042887
1.871756,2.426368,0.049869,0.045522
1.872925,2.430407,0.053489,0.048589
1.875134,2.432524,0.057639,0.052071
1.878205,2.435495,0.062255,0.055884
1.881440,2.441308,0.067295,0.059878
1.882229,2.444000,0.072641,0.064308
1.884145,2.447939,0.078526,0.069110
1.885430,2.450003,0.085018,0.074300
1.887162,2.455383,0.091984,0.080031
1.890225,2.459851,0.098843,0.085614
1.893290,2.462097,0.102089,0.088191
1.896538,2.469008,0.105491,0.090985
1.899425,2.471487,0.109024,0.093769
1.899847,2.473237,0.112791,0.096751
1.902268,2.478132,0.116860,0.100092
1.905449,2.480749,0.120949,0.103453
1.907649,2.487907,0.125277,0.106841
