Lambda11(-),Lambda22(-),Sigma11(MPa),Sigma22(MPa)
1.000000,1.000000,0.000000,0.000000
1.279559,1.386890,0.002552,-0.001156
1.280488,1.385883,0.002549,-0.001067
1.280748,1.385817,0.002606,-0.000995
1.281123,1.386058,0.002653,-0.001096
1.281605,1.386573,0.002693,-0.001136
1.282051,1.387018,0.002680,-0.001171
1.282716,1.387955,0.002713,-0.001112
1.284873,1.389647,0.002741,-0.001062
1.285323,1.391369,0.002812,-0.001063
1.285817,1.393364,0.002884,-0.001065
1.286237,1.393722,0.002887,-0.001030
1.286805,1.393952,0.002890,-0.001100
1.287251,1.394294,0.002932,-0.001066
1.287920,1.394969,0.002974,-0.001020
1.289322,1.395231,0.003016,-0.000939
1.290310,1.395606,0.003088,-0.000904
1.290613,1.395937,0.003130,-0.000904
1.291121,1.396301,0.003133,-0.001023
1.291385,1.396182,0.003135,-0.000942
1.291729,1.396110,0.003138,-0.000943
1.292382,1.397537,0.003180,-0.000945
1.293532,1.398123,0.003183,-0.001064
1.294585,1.399174,0.003186,-0.001100
1.295175,1.400385,0.003188,-0.000982
1.295349,1.401450,0.003161,-0.001019
1.295988,1.402040,0.003163,-0.001020
1.296803,1.402584,0.003166,-0.001104
1.297165,1.402995,0.003311,-0.001104
1.298539,1.403467,0.003344,-0.001033
1.298711,1.403862,0.003346,-0.000998
1.299755,1.404198,0.003349,-0.001082
1.300095,1.404939,0.003352,-0.001118
1.300102,1.406530,0.003354,-0.001000
1.300681,1.407452,0.003357,-0.001001
1.301574,1.407793,0.003360,-0.000918
1.302111,1.408774,0.003362,-0.000955
1.303047,1.409878,0.003365,-0.000837
1.303476,1.410578,0.003368,-0.000838
1.303450,1.411114,0.003370,-0.000838
1.304849,1.411684,0.003373,-0.000840
1.304691,1.412144,0.003376,-0.000961
1.305324,1.413903,0.003378,-0.000962
1.305261,1.415555,0.003270,-0.000962
1.306245,1.416933,0.003242,-0.001120
1.306678,1.417919,0.003245,-0.001277
1.307347,1.419193,0.003248,-0.001194
1.307929,1.420321,0.003281,-0.001122
1.308256,1.420958,0.003284,-0.001122
1.308383,1.421599,0.003287,-0.001086
1.309405,1.422648,0.003290,-0.001245
1.309716,1.423653,0.003323,-0.001210
1.310293,1.425543,0.003357,-0.001247
1.310490,1.427060,0.003432,-0.001211
1.311170,1.428926,0.003435,-0.001333
1.311721,1.429928,0.003437,-0.001408
1.312312,1.432010,0.003440,-0.001374
1.312671,1.432610,0.003515,-0.001326
1.312837,1.433613,0.003560,-0.001363
1.313583,1.434856,0.003594,-0.001402
1.313932,1.435843,0.003596,-0.001404
1.313526,1.437700,0.003630,-0.001441
1.313988,1.439353,0.003717,-0.001441
1.314730,1.441447,0.003792,-0.001441
1.314997,1.442202,0.003795,-0.001565
1.315210,1.444661,0.003798,-0.001493
1.315329,1.445841,0.003843,-0.001494
1.315577,1.447614,0.003961,-0.001458
1.316180,1.448613,0.003965,-0.001496
1.316694,1.450798,0.003968,-0.001460
1.317018,1.451406,0.004002,-0.001352
1.318098,1.452941,0.004078,-0.001353
1.318425,1.454074,0.004155,-0.001317
1.319296,1.456631,0.004159,-0.001367
1.319542,1.459456,0.004130,-0.001295
1.320359,1.460580,0.004165,-0.001223
1.320772,1.461320,0.004252,-0.001149
1.320938,1.463086,0.004288,-0.001149
1.321901,1.464022,0.004249,-0.001149
1.322646,1.465584,0.004252,-0.001026
1.323071,1.466657,0.004286,-0.000941
1.323544,1.467775,0.004333,-0.000780
1.324176,1.469577,0.004306,-0.000705
1.324886,1.472676,0.004193,-0.000668
1.325436,1.474658,0.004196,-0.000620
1.326507,1.476202,0.004241,-0.000534
1.327357,1.477357,0.004319,-0.000410
1.328648,1.479275,0.004292,-0.000297
1.329107,1.479984,0.004221,-0.000098
1.330106,1.481296,0.004256,0.000064
1.330981,1.483624,0.004302,0.000188
1.331029,1.485482,0.004338,0.000264
1.331828,1.487574,0.004343,0.000340
1.331980,1.488426,0.004314,0.000453
1.332742,1.489747,0.004349,0.000566
1.333714,1.492177,0.004437,0.000679
1.334226,1.493783,0.004474,0.000718
1.334508,1.494606,0.004435,0.000756
1.335277,1.495879,0.004512,0.000870
1.336104,1.497206,0.004633,0.001021
1.337294,1.499105,0.004713,0.001135
1.337926,1.500405,0.004760,0.001211
1.339264,1.502078,0.004722,0.001213
1.340318,1.504214,0.004800,0.001214
1.340568,1.506001,0.004922,0.001252
1.340958,1.508233,0.005001,0.001329
1.341747,1.509262,0.005049,0.001330
1.342175,1.510634,0.005054,0.001331
1.342750,1.512300,0.005327,0.001332
1.344945,1.515191,0.005568,0.001333
1.345202,1.516999,0.005725,0.001373
1.345352,1.518265,0.005805,0.001374
1.346559,1.518778,0.006037,0.001375
1.347051,1.519804,0.006312,0.001376
1.347459,1.521001,0.006501,0.001454
1.348363,1.523280,0.006658,0.001609
1.348670,1.526037,0.006772,0.001649
1.350226,1.527937,0.007005,0.001650
1.351552,1.529526,0.007238,0.001690
1.352713,1.531493,0.007363,0.001807
1.353430,1.533496,0.007488,0.001963
1.353695,1.535272,0.007603,0.002041
1.354629,1.537942,0.007761,0.002042
1.355083,1.541013,0.007800,0.002082
1.356695,1.543657,0.007839,0.002200
1.357949,1.544927,0.007922,0.002279
1.359280,1.546799,0.008049,0.002319
1.359881,1.547944,0.008055,0.002437
1.360297,1.551161,0.008106,0.002555
1.360489,1.552747,0.008234,0.002596
1.361397,1.553372,0.008362,0.002638
1.361968,1.555107,0.008368,0.002795
1.362840,1.557262,0.008375,0.003083
1.364591,1.558697,0.008503,0.003332
1.365971,1.561097,0.008709,0.003504
1.367304,1.563612,0.008914,0.003638
1.367793,1.565324,0.009010,0.003888
1.368739,1.566449,0.009106,0.004216
1.369522,1.567932,0.009312,0.004506
1.370093,1.571533,0.009597,0.004718
1.371093,1.573876,0.009837,0.004930
1.373190,1.575368,0.010123,0.005221
1.374040,1.576328,0.010452,0.005433
1.375435,1.578552,0.010693,0.005725
1.375984,1.580593,0.010780,0.006017
1.376776,1.581645,0.010944,0.006191
1.377753,1.585853,0.011275,0.006327
1.378502,1.587048,0.011606,0.006450
1.379306,1.587637,0.011815,0.006692
1.379506,1.588836,0.012015,0.007027
1.382030,1.592647,0.012180,0.007362
1.383601,1.594373,0.012581,0.007659
1.384940,1.596422,0.013027,0.007955
1.385827,1.597555,0.013317,0.008252
1.386742,1.598925,0.013496,0.008589
1.387880,1.602192,0.013754,0.008926
1.388425,1.603694,0.014047,0.009264
1.389766,1.605817,0.014374,0.009602
1.391501,1.609006,0.014745,0.009900
1.392576,1.609994,0.015364,0.010359
1.393640,1.610696,0.016019,0.010938
1.395549,1.612027,0.016629,0.011557
1.396352,1.614375,0.017285,0.012137
1.397297,1.616764,0.017987,0.012599
1.398225,1.618186,0.018656,0.013143
1.399045,1.622351,0.019359,0.013807
1.399163,1.622940,0.019940,0.014513
1.400329,1.624905,0.020680,0.015259
1.401410,1.626341,0.021547,0.016006
1.403033,1.627428,0.022573,0.016767
1.405538,1.628306,0.023680,0.017691
1.406988,1.630551,0.024790,0.018736
1.407493,1.631485,0.026027,0.019998
1.408715,1.634841,0.027436,0.021343
1.409675,1.636204,0.028838,0.022785
1.411229,1.637847,0.030208,0.024147
1.412560,1.639333,0.030779,0.024758
1.414307,1.640737,0.031383,0.025414
1.415053,1.643348,0.032030,0.026180
1.416707,1.645537,0.032793,0.026846
1.418270,1.646098,0.033706,0.027463
1.418813,1.648314,0.034764,0.028148
1.420440,1.651041,0.035699,0.028926
