Lambda11(-),Lambda22(-),Sigma11(MPa),Sigma22(MPa)
1.000000,1.000000,0.000000,0.000000
1.837557,1.320893,0.003164,-0.001895
1.835825,1.320449,0.003160,-0.001975
1.836911,1.320436,0.003157,-0.001935
1.839246,1.320496,0.003154,-0.001902
1.842209,1.320583,0.003153,-0.001773
1.842789,1.320633,0.003152,-0.001798
1.843323,1.321046,0.003151,-0.001695
1.843731,1.321200,0.003181,-0.001640
1.844418,1.321280,0.003185,-0.001490
1.849102,1.321518,0.003189,-0.001409
1.849460,1.321744,0.003192,-0.001328
1.850267,1.321809,0.003196,-0.001107
1.851198,1.321746,0.003199,-0.000956
1.851983,1.322032,0.003203,-0.000874
1.854465,1.322092,0.003206,-0.000758
1.857434,1.322160,0.003210,-0.000641
1.858438,1.322450,0.003213,-0.000490
1.859685,1.322386,0.003217,-0.000444
1.860393,1.322551,0.003220,-0.000363
1.861127,1.322793,0.003224,-0.000480
1.861568,1.322786,0.003227,-0.000482
1.864493,1.322753,0.003231,-0.000600
1.867601,1.324212,0.003204,-0.000600
1.869514,1.323933,0.003178,-0.000600
1.870722,1.324015,0.003181,-0.000683
1.871861,1.323987,0.003185,-0.000766
1.873477,1.323234,0.003189,-0.000919
1.876648,1.323774,0.003223,-0.000919
1.877921,1.323839,0.003227,-0.000919
1.879339,1.324037,0.003230,-0.000955
1.880465,1.324254,0.003234,-0.001073
1.881236,1.324731,0.003268,-0.001109
1.883260,1.323969,0.003343,-0.001038
1.885881,1.324181,0.003378,-0.001157
1.886478,1.324482,0.003381,-0.001075
1.887960,1.324523,0.003385,-0.000957
1.889431,1.324572,0.003419,-0.000923
1.890197,1.325466,0.003454,-0.000852
1.891022,1.325752,0.003489,-0.000888
1.893237,1.326313,0.003492,-0.000961
1.896337,1.326689,0.003527,-0.000842
1.897119,1.327076,0.003603,-0.000760
1.899103,1.328010,0.003649,-0.000867
1.900755,1.327965,0.003684,-0.000760
1.902267,1.328310,0.003687,-0.000843
1.903919,1.328695,0.003764,-0.000797
1.904838,1.329100,0.003737,-0.000725
1.907882,1.329366,0.003742,-0.000761
1.908629,1.329550,0.003715,-0.000679
1.910075,1.329675,0.003750,-0.000727
1.910831,1.329985,0.003827,-0.000655
1.912189,1.330459,0.003873,-0.000572
1.913845,1.330604,0.003919,-0.000572
1.916261,1.331842,0.003892,-0.000657
1.917151,1.332406,0.003927,-0.000467
1.918564,1.333793,0.003973,-0.000539
1.919004,1.333857,0.004020,-0.000539
1.919787,1.334692,0.003983,-0.000503
1.921034,1.335240,0.003955,-0.000731
1.923547,1.336437,0.003991,-0.000539
1.924707,1.337152,0.004038,-0.000504
1.926473,1.337963,0.004158,-0.000504
1.927585,1.338252,0.004163,-0.000468
1.928580,1.338592,0.004167,-0.000360
1.930410,1.338995,0.004214,-0.000276
1.931467,1.340094,0.004262,-0.000239
1.933046,1.340398,0.004309,-0.000167
1.935673,1.341202,0.004272,-0.000167
1.936761,1.341597,0.004275,-0.000084
1.937485,1.342511,0.004322,-0.000011
1.940038,1.344148,0.004402,0.000097
1.941558,1.345043,0.004440,0.000170
1.942167,1.345476,0.004444,0.000279
1.943071,1.345839,0.004480,0.000508
1.943510,1.346000,0.004571,0.000509
1.945961,1.346981,0.004609,0.000618
1.948401,1.347555,0.004614,0.000691
1.950621,1.348285,0.004576,0.000764
1.951037,1.349493,0.004655,0.000764
1.951996,1.351088,0.004736,0.000874
1.954155,1.352699,0.004774,0.000874
1.955560,1.354037,0.004780,0.000875
1.956312,1.355000,0.004980,0.000948
1.957178,1.355511,0.005104,0.001130
1.957997,1.356525,0.005229,0.001204
1.961040,1.358046,0.005279,0.001241
1.962432,1.358639,0.005252,0.001315
1.964599,1.360081,0.005453,0.001389
1.966073,1.361748,0.005621,0.001463
1.968328,1.363099,0.005704,0.001500
1.969242,1.364215,0.005830,0.001575
1.971297,1.365160,0.006023,0.001612
1.971619,1.366099,0.006301,0.001686
1.973591,1.366978,0.006537,0.001724
1.975877,1.368639,0.006698,0.001761
1.976477,1.370014,0.006781,0.001836
1.977252,1.371409,0.006942,0.001947
1.978948,1.372058,0.007027,0.001947
1.981804,1.373064,0.007220,0.001948
1.984656,1.374181,0.007339,0.001912
1.985481,1.375005,0.007457,0.001950
1.987157,1.376780,0.007652,0.001951
1.988598,1.377871,0.007737,0.001879
1.990988,1.378897,0.007900,0.001917
1.992061,1.380134,0.008062,0.001918
1.994838,1.382708,0.008104,0.001882
1.995229,1.383295,0.008113,0.001920
1.998185,1.384538,0.008167,0.001922
2.000487,1.385992,0.008221,0.001960
2.002623,1.387372,0.008353,0.002035
2.003227,1.388108,0.008484,0.002036
2.006477,1.388786,0.008526,0.002000
2.008062,1.389896,0.008625,0.002038
2.010504,1.391928,0.008757,0.002114
2.011585,1.393003,0.008935,0.002263
2.012387,1.394739,0.009034,0.002265
2.014675,1.395705,0.009134,0.002228
2.017178,1.396913,0.009234,0.002266
2.018769,1.397641,0.009402,0.002305
2.021271,1.399311,0.009537,0.002419
2.023662,1.399914,0.009750,0.002457
2.024693,1.400484,0.009963,0.002421
2.026116,1.402644,0.010177,0.002497
2.027339,1.404371,0.010392,0.002648
2.028491,1.405877,0.010528,0.002687
2.032859,1.406530,0.010823,0.002763
2.034384,1.407413,0.011117,0.002877
2.036202,1.408556,0.011322,0.003115
2.036704,1.409624,0.011459,0.003317
2.037585,1.410868,0.011631,0.003407
2.038075,1.411446,0.011882,0.003683
2.039878,1.413103,0.012134,0.003960
2.043635,1.414149,0.012386,0.004237
2.046074,1.415899,0.012525,0.004402
2.048405,1.416211,0.012779,0.004605
2.049378,1.418882,0.013161,0.004807
2.051251,1.420461,0.013543,0.005122
2.052159,1.421148,0.013846,0.005401
2.054583,1.421944,0.014102,0.005642
2.057853,1.423033,0.014440,0.005884
2.059646,1.424111,0.014779,0.006163
2.062980,1.425506,0.015210,0.006480
2.063997,1.426450,0.015770,0.006672
2.065235,1.428145,0.016318,0.006864
2.067335,1.428701,0.016949,0.007221
2.068267,1.429865,0.017582,0.007502
2.071032,1.432053,0.018180,0.007859
2.073754,1.432053,0.018813,0.008254
2.075585,1.434036,0.019494,0.008688
2.079176,1.435549,0.020096,0.009198
2.080409,1.436351,0.020619,0.009784
2.083597,1.436995,0.021400,0.010332
2.084957,1.437387,0.022217,0.010844
2.086070,1.439103,0.023200,0.011356
2.087976,1.440022,0.024232,0.012071
2.091372,1.441181,0.025267,0.012787
2.093928,1.443356,0.026338,0.013466
2.097918,1.443953,0.027411,0.014221
2.099692,1.445639,0.028615,0.015065
2.101436,1.446071,0.029906,0.015860
2.104004,1.447065,0.031294,0.016694
2.105116,1.448415,0.032883,0.017605
2.106678,1.449063,0.034559,0.018555
2.110597,1.450318,0.036320,0.019634
2.112260,1.451884,0.038345,0.020676
2.115072,1.452735,0.040540,0.021872
2.118373,1.453486,0.042611,0.023197
2.121235,1.454976,0.044899,0.024600
2.123924,1.456023,0.047360,0.026170
2.125878,1.456809,0.049873,0.027767
2.128186,1.458008,0.052558,0.029405
2.129794,1.459160,0.055632,0.031248
2.132187,1.459775,0.058882,0.033260
2.134731,1.460726,0.062437,0.035339
2.137763,1.461589,0.065926,0.037457
2.142752,1.462398,0.067514,0.038509
2.145744,1.464040,0.069151,0.039588
2.147960,1.464347,0.070908,0.040704
2.151050,1.464538,0.072801,0.041794
2.152386,1.466998,0.074674,0.042986
2.154002,1.468082,0.076540,0.044185
2.157341,1.469447,0.078617,0.045371
