Lambda11(-),Lambda22(-),Sigma11(MPa),Sigma22(MPa)
1.000000,1.000000,0.000000,0.000000
1.000000,1.000000,-0.000145,0.001827
1.001253,0.999566,0.000001,0.001871
1.001529,0.999856,0.000001,0.001818
1.003862,1.000137,-0.000060,0.001814
1.004120,1.000536,-0.000167,0.001812
1.004620,1.000727,-0.000206,0.001810
1.005049,1.001102,-0.000107,0.001776
1.005442,1.001252,-0.000100,0.001777
1.005634,1.001520,-0.000135,0.001749
1.005903,1.001853,-0.000091,0.001710
1.006184,1.002156,-0.000057,0.001682
1.007760,1.003353,-0.000056,0.001773
1.008393,1.004090,-0.000135,0.001805
1.010344,1.004649,-0.000225,0.001836
1.011933,1.005368,-0.000226,0.001867
1.012020,1.005520,-0.000270,0.001779
1.012227,1.005855,-0.000269,0.001781
1.012867,1.005956,-0.000360,0.001812
1.013142,1.006258,-0.000315,0.001844
1.012903,1.006643,-0.000191,0.001875
1.013489,1.008082,-0.000112,0.001937
1.014239,1.008423,-0.000191,0.001968
1.014506,1.008990,-0.000236,0.001970
1.015755,1.008930,-0.000158,0.002001
1.015987,1.009455,-0.000159,0.002103
1.016709,1.009908,-0.000193,0.002105
1.017295,1.010494,-0.000237,0.002077
1.017622,1.011277,-0.000283,0.002079
1.018673,1.011325,-0.000239,0.002050
1.019289,1.011597,-0.000149,0.002052
1.019083,1.012075,-0.000308,0.002012
1.019335,1.012273,-0.000353,0.002014
1.019243,1.012796,-0.000228,0.002016
1.019551,1.013526,-0.000320,0.001957
1.019786,1.013888,-0.000354,0.001928
1.020834,1.014276,-0.000514,0.001798
1.021586,1.014966,-0.000641,0.001830
1.022239,1.015316,-0.000641,0.001862
1.022113,1.015375,-0.000596,0.001833
1.022641,1.016083,-0.000596,0.001805
1.023058,1.016117,-0.000596,0.001776
1.023337,1.016731,-0.000723,0.001717
1.023704,1.016940,-0.000632,0.001688
1.024227,1.017583,-0.000505,0.001720
1.024796,1.017921,-0.000470,0.001691
1.025712,1.018777,-0.000391,0.001763
1.027103,1.019105,-0.000472,0.001765
1.027993,1.019983,-0.000506,0.001767
1.028427,1.020136,-0.000414,0.001696
1.029043,1.020824,-0.000414,0.001595
1.029355,1.021030,-0.000334,0.001698
1.029906,1.021033,-0.000208,0.001731
1.030292,1.021960,-0.000209,0.001733
1.030956,1.022380,-0.000255,0.001765
1.031171,1.023020,-0.000302,0.001694
1.031140,1.023043,-0.000349,0.001624
1.031770,1.023380,-0.000304,0.001656
1.032579,1.024289,-0.000268,0.001657
1.033103,1.024731,-0.000314,0.001628
1.033442,1.025010,-0.000396,0.001723
1.034620,1.025582,-0.000350,0.001786
1.035338,1.026328,-0.000268,0.001788
1.036008,1.027064,-0.000268,0.001759
1.036383,1.027322,-0.000397,0.001790
1.037141,1.028198,-0.000491,0.001864
1.037294,1.028501,-0.000539,0.001834
1.038112,1.029117,-0.000586,0.001774
1.038560,1.030125,-0.000634,0.001672
1.039117,1.030734,-0.000682,0.001569
1.039071,1.031442,-0.000636,0.001569
1.039515,1.032386,-0.000636,0.001675
1.040470,1.032722,-0.000637,0.001739
1.042190,1.033434,-0.000719,0.001741
1.042534,1.034007,-0.000802,0.001774
1.042719,1.034604,-0.000850,0.001744
1.043513,1.035748,-0.000850,0.001715
1.044100,1.036916,-0.001016,0.001749
1.045110,1.037290,-0.000980,0.001876
1.045306,1.037944,-0.000946,0.002046
1.046382,1.038554,-0.000947,0.002173
1.046666,1.039261,-0.000901,0.002238
1.046989,1.039613,-0.000770,0.002367
1.047279,1.040660,-0.000640,0.002600
1.047793,1.041380,-0.000677,0.002801
1.048285,1.041893,-0.000678,0.002972
1.048663,1.043007,-0.000678,0.003069
1.049709,1.044231,-0.000679,0.003135
1.050233,1.044852,-0.000679,0.003264
1.050882,1.045219,-0.000680,0.003362
1.051713,1.045957,-0.000633,0.003459
1.053383,1.047072,-0.000597,0.003557
1.054098,1.047807,-0.000515,0.003623
1.054224,1.048278,-0.000598,0.003658
1.054996,1.048866,-0.000503,0.003725
1.055554,1.049977,-0.000456,0.003760
1.055917,1.050579,-0.000457,0.003826
1.056372,1.051569,-0.000540,0.003829
1.056775,1.052594,-0.000455,0.003801
1.056830,1.053603,-0.000287,0.003868
1.059064,1.054519,-0.000239,0.004000
1.059771,1.055356,-0.000070,0.004100
1.060412,1.057233,0.000063,0.004103
1.060943,1.057637,0.000196,0.004138
1.061136,1.058503,0.000329,0.004206
1.061776,1.059346,0.000413,0.004306
1.062099,1.060406,0.000414,0.004374
1.062791,1.061279,0.000547,0.004377
1.064604,1.062605,0.000681,0.004413
1.065406,1.063530,0.000803,0.004481
1.065711,1.064122,0.000973,0.004614
1.065652,1.064581,0.001144,0.004715
1.065877,1.065067,0.001266,0.004924
1.066272,1.065623,0.001268,0.005166
1.066744,1.066451,0.001354,0.005408
1.067345,1.067093,0.001477,0.005587
1.069480,1.068435,0.001478,0.005765
1.070953,1.069715,0.001516,0.006040
1.071629,1.070953,0.001603,0.006284
1.072216,1.072251,0.001777,0.006495
1.072824,1.073161,0.001999,0.006707
1.073781,1.074020,0.002135,0.006919
1.074025,1.075124,0.002223,0.007195
1.074808,1.076064,0.002347,0.007505
1.075599,1.077967,0.002522,0.007816
1.076436,1.079359,0.002696,0.008061
1.077042,1.079959,0.002785,0.008406
1.077424,1.081106,0.003059,0.008719
1.077807,1.081998,0.003370,0.009000
1.078031,1.082358,0.003732,0.009248
1.078454,1.083211,0.004094,0.009497
1.079587,1.084133,0.004456,0.009779
1.080786,1.085370,0.004856,0.010061
1.081915,1.086626,0.005256,0.010443
1.082355,1.088121,0.005659,0.010858
1.083922,1.089794,0.006061,0.011307
1.084560,1.090401,0.006688,0.011833
1.084905,1.091534,0.007352,0.012394
1.085776,1.092972,0.007943,0.012889
1.086803,1.093941,0.008397,0.013352
1.087556,1.094753,0.008902,0.013981
1.088137,1.096409,0.009531,0.014611
1.088983,1.098010,0.010063,0.015165
1.089427,1.099002,0.010659,0.015686
1.090167,1.100122,0.011205,0.016241
1.090871,1.101717,0.011790,0.016908
1.091734,1.102469,0.012463,0.017509
1.091688,1.103229,0.013150,0.018144
1.092175,1.103621,0.013876,0.018814
1.093497,1.105932,0.014655,0.019552
1.094909,1.106881,0.015471,0.020191
1.096234,1.108590,0.016240,0.020932
1.097644,1.109982,0.016972,0.021775
1.097886,1.111201,0.017742,0.022686
1.098574,1.111941,0.018652,0.023711
1.099529,1.113401,0.019703,0.024705
1.100233,1.114715,0.020806,0.025813
1.100988,1.115909,0.021911,0.026921
1.101795,1.117409,0.023055,0.028165
1.102311,1.119047,0.024328,0.029556
1.103585,1.120138,0.025793,0.030904
1.104167,1.122260,0.027350,0.032457
1.105160,1.123282,0.028998,0.034192
1.106884,1.124899,0.030789,0.036010
1.107229,1.126061,0.032622,0.037932
1.108436,1.128124,0.034649,0.040105
1.109031,1.127784,0.036679,0.042338
1.110304,1.130289,0.039082,0.044586
1.110966,1.131023,0.041718,0.047052
1.111741,1.133449,0.044537,0.049614
1.112603,1.134740,0.047631,0.052475
1.113912,1.135414,0.050766,0.055363
1.114429,1.136937,0.054190,0.058539
1.114954,1.138313,0.057838,0.061971
1.115476,1.139547,0.061736,0.065580
1.116742,1.140013,0.065549,0.069236
1.117785,1.140939,0.067322,0.071001
1.118519,1.143048,0.069203,0.072787
1.119415,1.143765,0.071107,0.074599
1.120783,1.145147,0.073110,0.076458
1.121761,1.147056,0.075163,0.078361
1.123733,1.147782,0.077519,0.080342
1.124481,1.149929,0.079760,0.082535
