Lambda11(-),Lambda22(-),Sigma11(MPa),Sigma22(MPa)
1.000000,1.000000,0.000000,0.000000
1.339293,1.253225,0.001483,0.001951
1.339145,1.252742,0.001475,0.001994
1.339332,1.253157,0.001469,0.001911
1.339804,1.254544,0.001463,0.001798
1.342156,1.256003,0.001459,0.001885
1.342273,1.254171,0.001456,0.001997
1.342947,1.254422,0.001453,0.001986
1.343389,1.254555,0.001451,0.001932
1.343605,1.254945,0.001494,0.001966
1.344985,1.255270,0.001495,0.002001
1.345881,1.256143,0.001496,0.002037
1.347035,1.258752,0.001498,0.001961
1.347543,1.259479,0.001499,0.001928
1.347970,1.259890,0.001458,0.002007
1.348236,1.260350,0.001460,0.002077
1.349031,1.260953,0.001461,0.002046
1.348936,1.261358,0.001462,0.002014
1.349225,1.263549,0.001463,0.001947
1.349505,1.264410,0.001464,0.002061
1.349545,1.265075,0.001465,0.002063
1.349795,1.265153,0.001467,0.001919
1.350064,1.265531,0.001468,0.001921
1.350234,1.266346,0.001512,0.001922
1.350594,1.266825,0.001471,0.002002
1.350710,1.268716,0.001472,0.001970
1.351043,1.269789,0.001473,0.001859
1.351101,1.270622,0.001474,0.001826
1.352801,1.271169,0.001518,0.001940
1.353370,1.271941,0.001519,0.001977
1.354657,1.272516,0.001521,0.001945
1.354876,1.273337,0.001565,0.001879
1.355521,1.274926,0.001566,0.001835
1.355814,1.275539,0.001567,0.001950
1.355991,1.276399,0.001568,0.001952
1.356194,1.276803,0.001569,0.001840
1.356871,1.278141,0.001614,0.001841
1.357113,1.279381,0.001690,0.001797
1.357289,1.280719,0.001692,0.001798
1.357119,1.280808,0.001693,0.001685
1.357536,1.281886,0.001737,0.001721
1.358035,1.283871,0.001857,0.001803
1.358343,1.283932,0.001977,0.001884
1.358432,1.285241,0.001936,0.001805
1.358793,1.285992,0.001937,0.001808
1.358953,1.286826,0.002014,0.001695
1.359474,1.287283,0.002124,0.001650
1.360042,1.288607,0.002245,0.001732
1.360493,1.289921,0.002290,0.001768
1.360854,1.290992,0.002291,0.001840
1.361168,1.291967,0.002368,0.001991
1.361693,1.292462,0.002479,0.002108
1.361925,1.292873,0.002481,0.002190
1.362136,1.293234,0.002439,0.002342
1.362357,1.294296,0.002484,0.002528
1.363227,1.295046,0.002519,0.002530
1.363295,1.296791,0.002554,0.002567
1.363470,1.296978,0.002557,0.002673
1.363756,1.297919,0.002558,0.002826
1.364539,1.299222,0.002603,0.002828
1.364839,1.300388,0.002649,0.002911
1.366273,1.301466,0.002652,0.003029
1.366570,1.302117,0.002688,0.003066
1.367211,1.303025,0.002646,0.003103
1.368696,1.304181,0.002724,0.003036
1.368964,1.304624,0.002804,0.002887
1.370310,1.305414,0.002807,0.002819
1.370004,1.306100,0.002776,0.002786
1.371736,1.307739,0.002854,0.002683
1.372435,1.308490,0.002889,0.002580
1.372956,1.309914,0.002936,0.002582
1.373535,1.310858,0.002939,0.002550
1.374435,1.312397,0.002942,0.002446
1.375141,1.313003,0.003020,0.002296
1.375691,1.313596,0.003100,0.002145
1.375702,1.314685,0.003214,0.002183
1.376675,1.315809,0.003295,0.002221
1.376918,1.316522,0.003376,0.002105
1.377823,1.317570,0.003577,0.002036
1.379270,1.318654,0.003736,0.002003
1.379729,1.319760,0.003817,0.002122
1.380189,1.321082,0.003898,0.002160
1.380903,1.322245,0.004180,0.002197
1.382193,1.323181,0.004428,0.002199
1.382905,1.324383,0.004676,0.002153
1.383328,1.325345,0.004836,0.002191
1.385301,1.326581,0.005007,0.002336
1.386518,1.327358,0.005212,0.002481
1.387511,1.328014,0.005461,0.002565
1.388351,1.329949,0.005666,0.002757
1.389373,1.331259,0.005760,0.002796
1.390263,1.333516,0.005854,0.002870
1.390868,1.335607,0.005949,0.003135
1.391122,1.335784,0.006077,0.003245
1.391607,1.336706,0.006171,0.003354
1.392161,1.337432,0.006266,0.003393
1.393710,1.338434,0.006360,0.003503
1.395692,1.339456,0.006366,0.003613
1.396665,1.340612,0.006405,0.003760
1.398339,1.341697,0.006524,0.003953
1.398720,1.342878,0.006653,0.003993
1.400394,1.345773,0.006659,0.003961
1.401359,1.346264,0.006699,0.003964
1.402609,1.347225,0.006784,0.004075
1.403302,1.347754,0.006869,0.004114
1.404849,1.349030,0.006874,0.004190
1.405817,1.351126,0.006959,0.004158
1.406381,1.352058,0.007044,0.004125
1.408006,1.353743,0.007130,0.004238
1.408900,1.355424,0.007295,0.004350
1.409560,1.356903,0.007380,0.004463
1.410828,1.358057,0.007420,0.004466
1.411911,1.358457,0.007460,0.004506
1.413420,1.359301,0.007592,0.004619
1.413885,1.361791,0.007599,0.004769
1.416072,1.363035,0.007686,0.004919
1.417026,1.364752,0.007886,0.005069
1.418429,1.365996,0.008099,0.005305
1.419409,1.367509,0.008221,0.005505
1.420568,1.368981,0.008263,0.005778
1.421493,1.369675,0.008557,0.006052
1.424018,1.371580,0.008805,0.006362
1.424815,1.373095,0.009020,0.006636
1.425733,1.374504,0.009269,0.006874
1.427410,1.375611,0.009357,0.007112
1.428080,1.377332,0.009607,0.007351
1.429071,1.379386,0.009903,0.007662
1.431299,1.380850,0.010164,0.008012
1.432071,1.383387,0.010206,0.008362
1.433197,1.384416,0.010294,0.008565
1.433579,1.385320,0.010430,0.008731
1.435272,1.386890,0.010565,0.008972
1.436895,1.388262,0.010655,0.009288
1.439237,1.389629,0.010792,0.009517
1.439914,1.391486,0.011009,0.009797
1.442363,1.393493,0.011053,0.010115
1.443412,1.394520,0.011063,0.010396
1.444082,1.395601,0.011154,0.010678
1.445236,1.398102,0.011211,0.010959
1.445814,1.398764,0.011512,0.011278
1.446676,1.400106,0.011768,0.011597
1.447303,1.401906,0.011989,0.011917
1.449071,1.403659,0.012198,0.012275
1.450328,1.404544,0.012500,0.012596
1.453048,1.405733,0.012884,0.013105
1.454592,1.407893,0.013270,0.013651
1.456926,1.409053,0.013575,0.014160
1.457913,1.411059,0.013926,0.014597
1.458269,1.411487,0.014314,0.015271
1.459814,1.412070,0.014831,0.015935
1.461108,1.413527,0.015479,0.016525
1.461527,1.415126,0.016034,0.017153
1.462300,1.415608,0.016506,0.017818
1.463084,1.417571,0.017014,0.018573
1.463779,1.420097,0.017454,0.019292
1.465005,1.420828,0.017943,0.020011
1.465968,1.422844,0.018502,0.020844
1.468603,1.423623,0.019109,0.021679
1.469565,1.424720,0.019764,0.022515
1.471390,1.426485,0.020253,0.023239
1.474326,1.427482,0.020732,0.024204
1.476389,1.430367,0.021389,0.025246
1.476787,1.430901,0.022084,0.026278
1.477837,1.433667,0.022744,0.027363
1.478573,1.434969,0.023275,0.028374
1.479806,1.435926,0.023879,0.029538
1.479754,1.435963,0.024711,0.030793
1.480569,1.437084,0.025711,0.032164
1.483227,1.438564,0.026712,0.033563
1.484277,1.440522,0.027751,0.035053
1.484898,1.441480,0.028708,0.036659
1.487461,1.442096,0.029714,0.038396
1.487949,1.443291,0.030939,0.040214
1.489685,1.444141,0.032286,0.042149
1.490707,1.445493,0.033814,0.044291
1.492037,1.446075,0.035344,0.046192
1.493158,1.447981,0.036015,0.047113
1.495046,1.449354,0.036691,0.048085
1.496433,1.450270,0.037478,0.049010
1.497861,1.451582,0.038405,0.050048
1.499017,1.453243,0.039210,0.051061
1.500186,1.454941,0.039971,0.052146
1.500548,1.455351,0.040672,0.053212
