Lambda11(-),Lambda22(-),Sigma11(MPa),Sigma22(MPa)
1.000000,1.000000,0.000000,0.000000
1.000000,1.000000,0.004141,0.001312
1.000019,0.999931,0.004144,0.001272
1.000574,1.000235,0.004146,0.001313
1.000867,1.000479,0.004149,0.001063
1.001293,1.000661,0.004151,0.001174
1.001809,1.000803,0.004154,0.001212
1.002942,1.001116,0.004156,0.001297
1.003458,1.001345,0.004158,0.001275
1.003854,1.001463,0.004163,0.001227
1.004199,1.001725,0.004168,0.001324
1.004599,1.002515,0.004173,0.001469
1.005974,1.002915,0.004178,0.001470
1.006489,1.003188,0.004182,0.001662
1.006959,1.003832,0.004187,0.001567
1.007541,1.004131,0.004191,0.001615
1.008477,1.004401,0.004196,0.001569
1.009298,1.004983,0.004201,0.001570
1.010062,1.005154,0.004205,0.001522
1.010575,1.005666,0.004210,0.001827
1.010947,1.005816,0.004215,0.001684
1.011581,1.006426,0.004219,0.001685
1.012124,1.006977,0.004224,0.001783
1.012708,1.007473,0.004229,0.001977
1.013147,1.007781,0.004233,0.002074
1.014588,1.008050,0.004238,0.002075
1.015234,1.008289,0.004300,0.001931
1.015836,1.008737,0.004305,0.001835
1.016555,1.008889,0.004310,0.001838
1.016864,1.009594,0.004314,0.001983
1.017206,1.010767,0.004319,0.002130
1.018603,1.011002,0.004381,0.002131
1.019235,1.011154,0.004386,0.002326
1.020064,1.011522,0.004391,0.002570
1.020522,1.012024,0.004453,0.002669
1.021300,1.012477,0.004458,0.002913
1.021864,1.012946,0.004520,0.003108
1.022543,1.013019,0.004525,0.003013
1.023155,1.013472,0.004530,0.002967
1.023909,1.013779,0.004592,0.003065
1.024336,1.014485,0.004698,0.003164
1.024615,1.015391,0.004704,0.003165
1.025484,1.015462,0.004709,0.003360
1.025800,1.015732,0.004714,0.003265
1.027166,1.015927,0.004777,0.003315
1.027481,1.016274,0.004884,0.003268
1.028423,1.016666,0.004831,0.003318
1.029328,1.016952,0.004836,0.003321
1.029898,1.017129,0.004841,0.003274
1.030537,1.017352,0.004891,0.003179
1.031291,1.018026,0.004954,0.003132
1.032254,1.018161,0.004902,0.003085
1.033344,1.018287,0.004906,0.003185
1.033866,1.018546,0.004970,0.003236
1.034294,1.019676,0.005020,0.003238
1.035108,1.020549,0.005085,0.003240
1.035792,1.020970,0.005032,0.003438
1.036269,1.021070,0.005037,0.003489
1.037032,1.021190,0.005145,0.003589
1.037608,1.021605,0.005255,0.003640
1.038721,1.021842,0.005261,0.003740
1.039078,1.021904,0.005266,0.003791
1.040016,1.022178,0.005330,0.003794
1.040621,1.022471,0.005439,0.003796
1.041629,1.022570,0.005550,0.003897
1.042218,1.023001,0.005601,0.003998
1.042700,1.023684,0.005606,0.004099
1.044330,1.024025,0.005671,0.004101
1.044946,1.024922,0.005721,0.004153
1.045929,1.025560,0.005788,0.004254
1.046655,1.026002,0.005736,0.004256
1.047318,1.026425,0.005741,0.004259
1.048290,1.026647,0.005805,0.004261
1.049100,1.027195,0.005872,0.004263
1.049924,1.027445,0.005925,0.004315
1.050196,1.027512,0.005886,0.004317
1.050865,1.027949,0.005891,0.004320
1.051945,1.028160,0.005943,0.004322
1.053104,1.028505,0.006010,0.004324
1.053783,1.029941,0.005973,0.004327
1.054738,1.030289,0.005874,0.004279
1.055830,1.031052,0.005879,0.004232
1.056474,1.031410,0.005930,0.004235
1.057425,1.031706,0.006044,0.004187
1.058378,1.031974,0.006098,0.004140
1.059448,1.032394,0.006059,0.004142
1.060406,1.032974,0.006125,0.004145
1.061143,1.033923,0.006283,0.004197
1.061920,1.035062,0.006337,0.004249
1.062718,1.035529,0.006407,0.004252
1.063402,1.035789,0.006520,0.004305
1.064941,1.036145,0.006632,0.004307
1.066047,1.036621,0.006746,0.004359
1.066272,1.037075,0.006862,0.004412
1.067396,1.038166,0.006869,0.004415
1.067912,1.039274,0.007090,0.004417
1.068877,1.039548,0.007311,0.004470
1.069918,1.040239,0.007534,0.004573
1.071336,1.040854,0.007604,0.004676
1.072051,1.041112,0.007675,0.004780
1.073143,1.042213,0.008006,0.004832
1.074305,1.042789,0.008276,0.004936
1.075295,1.044060,0.008456,0.005158
1.075895,1.044418,0.008573,0.005161
1.077375,1.045234,0.008692,0.005163
1.078242,1.045884,0.008980,0.005115
1.079481,1.047020,0.009330,0.005219
1.080274,1.047628,0.009572,0.005374
1.082051,1.048589,0.009754,0.005478
1.082961,1.049628,0.010043,0.005430
1.083959,1.049965,0.010287,0.005483
1.083981,1.050089,0.010530,0.005486
1.085502,1.050813,0.010667,0.005591
1.086062,1.051464,0.010849,0.005645
1.086791,1.052853,0.011032,0.005546
1.087689,1.053517,0.011106,0.005549
1.089005,1.054560,0.011243,0.005603
1.090720,1.055140,0.011365,0.005608
1.091980,1.056308,0.011503,0.005883
1.092934,1.057001,0.011578,0.006107
1.093641,1.058017,0.011639,0.006314
1.093964,1.059322,0.011763,0.006538
1.094692,1.059888,0.011934,0.006610
1.095992,1.061093,0.011947,0.006665
1.096733,1.061819,0.011960,0.006821
1.097271,1.062489,0.012084,0.007200
1.098932,1.063310,0.012256,0.007476
1.100439,1.064484,0.012380,0.007651
1.101221,1.065261,0.012393,0.007877
1.101279,1.065452,0.012566,0.008308
1.101959,1.066420,0.012851,0.008687
1.102587,1.067236,0.013136,0.008913
1.103160,1.067761,0.013439,0.009072
1.104772,1.069206,0.013901,0.009180
1.106255,1.070615,0.014300,0.009288
1.106825,1.071386,0.014652,0.009515
1.107865,1.072596,0.014893,0.009675
1.108662,1.073090,0.015135,0.009938
1.109791,1.073896,0.015537,0.010217
1.110777,1.075004,0.016003,0.010496
1.111976,1.076191,0.016357,0.010606
1.112491,1.077357,0.016664,0.010818
1.113848,1.077824,0.017020,0.010978
1.115582,1.078240,0.017553,0.011087
1.116217,1.079369,0.018088,0.011300
1.117229,1.079892,0.018464,0.011565
1.119055,1.082090,0.018889,0.011951
1.119337,1.082835,0.019365,0.012286
1.119859,1.083493,0.019859,0.012724
1.120518,1.084004,0.020418,0.013214
1.122154,1.084566,0.021027,0.013757
1.123020,1.085985,0.021800,0.014197
1.124920,1.086714,0.022640,0.014689
1.126266,1.088236,0.023546,0.015338
1.127503,1.089276,0.024456,0.015987
1.128467,1.089593,0.025416,0.016584
1.129555,1.090223,0.026377,0.017183
1.131267,1.090716,0.027339,0.017833
1.132385,1.091654,0.028301,0.018605
1.133178,1.093967,0.029218,0.019326
1.134103,1.094538,0.030483,0.020049
1.136269,1.095366,0.031750,0.020807
1.137200,1.096385,0.032904,0.021670
1.139372,1.096780,0.034294,0.022535
1.140078,1.098176,0.035803,0.023627
1.140745,1.098578,0.037313,0.024615
1.142194,1.099353,0.039011,0.025867
1.143644,1.100650,0.040963,0.027067
1.144799,1.101121,0.042968,0.028164
1.146250,1.102478,0.045211,0.029593
1.147257,1.102879,0.047524,0.031130
1.149079,1.103754,0.049890,0.032790
1.150635,1.104950,0.052679,0.034662
1.151786,1.106098,0.055826,0.036746
1.153179,1.107259,0.059096,0.038885
1.154266,1.107688,0.062256,0.041078
1.156153,1.108242,0.063756,0.042088
1.157578,1.109436,0.065485,0.043133
1.158784,1.110771,0.067040,0.044219
1.161231,1.112376,0.068715,0.045191
1.162343,1.112995,0.070645,0.046357
1.164139,1.113546,0.072496,0.047429
1.165708,1.114256,0.074115,0.048668
