Lambda11(-),Lambda22(-),Sigma11(MPa),Sigma22(MPa)
1.000000,1.000000,0.000000,0.000000
1.249901,1.287412,0.001237,0.000271
1.250224,1.288205,0.001237,0.000354
1.249726,1.287925,0.001238,0.000383
1.247842,1.287698,0.001238,0.000290
1.246730,1.287390,0.001239,0.000287
1.245089,1.287225,0.001240,0.000285
1.243926,1.286887,0.001240,0.000164
1.243173,1.286466,0.001241,0.000135
1.242496,1.286190,0.001242,0.000161
1.242240,1.285908,0.001273,0.000162
1.242011,1.285867,0.001304,0.000127
1.242384,1.285976,0.001306,0.000017
1.242914,1.286321,0.001307,0.000077
1.243424,1.286483,0.001308,0.000137
1.243770,1.286881,0.001309,0.000189
1.246136,1.287129,0.001310,0.000241
1.246835,1.287472,0.001311,0.000242
1.247219,1.287721,0.001312,0.000294
1.248517,1.287976,0.001313,0.000380
1.249816,1.289305,0.001314,0.000406
1.250865,1.290258,0.001315,0.000346
1.251218,1.291381,0.001316,0.000397
1.251404,1.291836,0.001317,0.000371
1.251873,1.292159,0.001318,0.000310
1.252413,1.292430,0.001289,0.000276
1.252791,1.292692,0.001260,0.000223
1.254601,1.292944,0.001261,0.000223
1.255339,1.293467,0.001262,0.000197
1.255535,1.295476,0.001317,0.000224
1.256883,1.295607,0.001349,0.000111
1.257370,1.296484,0.001350,0.000086
1.257600,1.296732,0.001351,0.000061
1.258005,1.297602,0.001352,0.000009
1.258429,1.298043,0.001353,0.000010
1.259253,1.298011,0.001385,-0.000077
1.259616,1.298261,0.001386,-0.000078
1.259953,1.298134,0.001418,0.000010
1.260652,1.299020,0.001504,0.000071
1.261003,1.300108,0.001591,0.000132
1.261844,1.301396,0.001623,0.000132
1.262568,1.301636,0.001624,0.000219
1.264221,1.301934,0.001680,0.000254
1.264010,1.303079,0.001766,0.000307
1.264205,1.303207,0.001768,0.000255
1.264772,1.303033,0.001738,0.000343
1.265549,1.303325,0.001739,0.000344
1.265744,1.303851,0.001795,0.000318
1.266302,1.303923,0.001883,0.000318
1.266890,1.305519,0.001938,0.000345
1.266872,1.306550,0.001909,0.000407
1.266648,1.307192,0.001941,0.000575
1.267161,1.308037,0.001997,0.000629
1.268078,1.308635,0.002023,0.000656
1.267773,1.308996,0.001970,0.000630
1.267655,1.309445,0.001972,0.000773
1.267789,1.309775,0.002028,0.000907
1.267858,1.310052,0.002061,0.001014
1.268274,1.310342,0.002087,0.001042
1.268322,1.311388,0.002065,0.001069
1.269041,1.312667,0.002121,0.001123
1.269092,1.314066,0.002178,0.001178
1.269232,1.314101,0.002235,0.001286
1.269503,1.314469,0.002261,0.001340
1.269573,1.315661,0.002295,0.001395
1.270639,1.316686,0.002383,0.001503
1.270683,1.316913,0.002496,0.001505
1.271274,1.317227,0.002554,0.001533
1.271566,1.317364,0.002500,0.001615
1.272293,1.317673,0.002558,0.001723
1.272195,1.318093,0.002671,0.001725
1.273582,1.318865,0.002792,0.001700
1.273854,1.320406,0.002882,0.001701
1.274368,1.321173,0.002884,0.001730
1.275003,1.322010,0.003054,0.001812
1.274923,1.323144,0.003232,0.001867
1.275588,1.323720,0.003410,0.001896
1.275902,1.324165,0.003500,0.001897
1.276926,1.324584,0.003591,0.001926
1.277137,1.325383,0.003738,0.001927
1.278042,1.326214,0.003885,0.001956
1.278321,1.326810,0.003976,0.001985
1.278920,1.327904,0.004067,0.002014
1.279678,1.328854,0.004247,0.002043
1.280155,1.329379,0.004394,0.002100
1.280003,1.329726,0.004486,0.002129
1.280774,1.331012,0.004546,0.002213
1.281373,1.331883,0.004605,0.002297
1.281996,1.332394,0.004729,0.002326
1.282388,1.332859,0.004765,0.002355
1.283072,1.333531,0.004769,0.002385
1.283751,1.334674,0.004773,0.002469
1.284654,1.335035,0.004809,0.002498
1.285328,1.337154,0.004845,0.002500
1.285764,1.338158,0.004849,0.002529
1.287444,1.339808,0.004910,0.002614
1.287811,1.340278,0.004996,0.002727
1.288543,1.340865,0.005025,0.002877
1.289695,1.342219,0.005029,0.002990
1.290378,1.342917,0.005057,0.003075
1.291371,1.344199,0.005143,0.003281
1.291860,1.344624,0.005229,0.003377
1.292498,1.345325,0.005258,0.003500
1.292846,1.345668,0.005262,0.003706
1.293237,1.346348,0.005348,0.003913
1.294047,1.347121,0.005500,0.004092
1.295035,1.349267,0.005676,0.004299
1.295618,1.351404,0.005763,0.004534
1.296994,1.352560,0.005939,0.004769
1.297759,1.353446,0.006174,0.005004
1.298458,1.353896,0.006352,0.005212
1.300353,1.354545,0.006480,0.005421
1.301164,1.355306,0.006666,0.005537
1.302085,1.357067,0.006877,0.005691
1.302976,1.358498,0.007063,0.005956
1.304235,1.359372,0.007192,0.006167
1.305028,1.361737,0.007347,0.006434
1.306087,1.363318,0.007558,0.006701
1.307405,1.363707,0.007795,0.006941
1.308294,1.364596,0.007983,0.007181
1.309225,1.365595,0.008130,0.007393
1.309627,1.365735,0.008320,0.007578
1.311526,1.367249,0.008658,0.007847
1.312620,1.367899,0.008905,0.008257
1.313784,1.368658,0.009062,0.008611
1.314694,1.372016,0.009220,0.008882
1.315752,1.372610,0.009377,0.009181
1.316950,1.374250,0.009617,0.009594
1.318623,1.375708,0.009858,0.010007
1.320109,1.377255,0.010133,0.010374
1.321453,1.378068,0.010408,0.010733
1.322686,1.379153,0.010658,0.011120
1.323374,1.381169,0.010934,0.011565
1.324067,1.384177,0.011277,0.012011
1.326212,1.384977,0.011587,0.012457
1.327528,1.385777,0.011872,0.012960
1.329121,1.386868,0.012150,0.013503
1.329739,1.388280,0.012430,0.013951
1.331661,1.389484,0.012735,0.014411
1.332179,1.390516,0.013107,0.014899
1.333680,1.391983,0.013421,0.015387
1.334907,1.393657,0.013725,0.015905
1.336328,1.397504,0.014039,0.016395
1.337186,1.398744,0.014379,0.016943
1.338609,1.399877,0.014661,0.017492
1.340550,1.401343,0.015002,0.018071
1.341680,1.402268,0.015250,0.018680
1.343700,1.403957,0.015532,0.019262
1.344445,1.405301,0.015875,0.019940
1.346201,1.407460,0.016278,0.020677
1.347562,1.409489,0.016707,0.021502
1.348859,1.411161,0.017052,0.022386
1.349922,1.414022,0.017492,0.023339
1.352743,1.415068,0.017992,0.024255
1.354054,1.416710,0.018493,0.025172
1.355171,1.418932,0.019114,0.026235
1.357276,1.420952,0.019863,0.027311
1.357264,1.421814,0.020546,0.028445
1.358760,1.422302,0.021238,0.029552
1.360695,1.423923,0.022016,0.030688
1.361410,1.425900,0.022795,0.031914
1.363073,1.427302,0.023788,0.033211
1.365684,1.428863,0.024877,0.034567
1.366736,1.430596,0.025901,0.035916
1.368269,1.432216,0.026865,0.037365
1.369705,1.434573,0.027839,0.038943
1.370594,1.435869,0.028995,0.040368
1.372525,1.438471,0.030154,0.041883
1.373796,1.440679,0.031350,0.043498
1.375659,1.442230,0.032607,0.045291
1.377403,1.444389,0.033953,0.047067
1.379578,1.445153,0.035337,0.048954
1.381210,1.446661,0.036817,0.050913
1.382833,1.447847,0.038386,0.052934
1.384496,1.449796,0.040027,0.055077
1.385592,1.451770,0.041758,0.057323
1.387222,1.452811,0.043431,0.059500
1.388642,1.454153,0.044164,0.060552
1.389181,1.456215,0.044938,0.061662
1.390585,1.457229,0.045838,0.062758
1.393005,1.459998,0.046853,0.063716
1.394398,1.462381,0.047834,0.064905
1.396030,1.464289,0.048771,0.066157
1.398070,1.465460,0.049710,0.067368
