Lambda11(-),Lambda22(-),Sigma11(MPa),Sigma22(MPa)
1.000000,1.000000,0.000000,0.000000
1.000000,1.000000,0.002552,-0.001156
1.000726,0.999274,0.002549,-0.001067
1.000930,0.999227,0.002606,-0.000995
1.001223,0.999400,0.002653,-0.001096
1.001600,0.999772,0.002693,-0.001136
1.001948,1.000093,0.002680,-0.001171
1.002468,1.000768,0.002713,-0.001112
1.004153,1.001988,0.002741,-0.001062
1.004505,1.003230,0.002812,-0.001063
1.004891,1.004669,0.002884,-0.001065
1.005219,1.004926,0.002887,-0.001030
1.005663,1.005092,0.002890,-0.001100
1.006012,1.005339,0.002932,-0.001066
1.006535,1.005825,0.002974,-0.001020
1.007631,1.006014,0.003016,-0.000939
1.008402,1.006284,0.003088,-0.000904
1.008640,1.006523,0.003130,-0.000904
1.009036,1.006786,0.003133,-0.001023
1.009242,1.006700,0.003135,-0.000942
1.009511,1.006648,0.003138,-0.000943
1.010022,1.007677,0.003180,-0.000945
1.010921,1.008099,0.003183,-0.001064
1.011744,1.008858,0.003186,-0.001100
1.012205,1.009730,0.003188,-0.000982
1.012341,1.010499,0.003161,-0.001019
1.012840,1.010924,0.003163,-0.001020
1.013477,1.011316,0.003166,-0.001104
1.013760,1.011613,0.003311,-0.001104
1.014833,1.011953,0.003344,-0.001033
1.014968,1.012238,0.003346,-0.000998
1.015784,1.012480,0.003349,-0.001082
1.016050,1.013014,0.003352,-0.001118
1.016055,1.014162,0.003354,-0.001000
1.016508,1.014826,0.003357,-0.001001
1.017205,1.015072,0.003360,-0.000918
1.017626,1.015779,0.003362,-0.000955
1.018357,1.016576,0.003365,-0.000837
1.018692,1.017080,0.003368,-0.000838
1.018671,1.017467,0.003370,-0.000838
1.019765,1.017878,0.003373,-0.000840
1.019641,1.018210,0.003376,-0.000961
1.020136,1.019478,0.003378,-0.000962
1.020087,1.020669,0.003270,-0.000962
1.020856,1.021663,0.003242,-0.001120
1.021194,1.022374,0.003245,-0.001277
1.021717,1.023292,0.003248,-0.001194
1.022172,1.024105,0.003281,-0.001122
1.022428,1.024565,0.003284,-0.001122
1.022527,1.025027,0.003287,-0.001086
1.023325,1.025783,0.003290,-0.001245
1.023569,1.026507,0.003323,-0.001210
1.024020,1.027870,0.003357,-0.001247
1.024173,1.028964,0.003432,-0.001211
1.024705,1.030309,0.003435,-0.001333
1.025135,1.031032,0.003437,-0.001408
1.025598,1.032533,0.003440,-0.001374
1.025878,1.032966,0.003515,-0.001326
1.026007,1.033689,0.003560,-0.001363
1.026591,1.034585,0.003594,-0.001402
1.026864,1.035297,0.003596,-0.001404
1.026546,1.036636,0.003630,-0.001441
1.026908,1.037828,0.003717,-0.001441
1.027487,1.039338,0.003792,-0.001441
1.027696,1.039882,0.003795,-0.001565
1.027862,1.041655,0.003798,-0.001493
1.027955,1.042506,0.003843,-0.001494
1.028149,1.043785,0.003961,-0.001458
1.028620,1.044505,0.003965,-0.001496
1.029022,1.046080,0.003968,-0.001460
1.029275,1.046519,0.004002,-0.001352
1.030120,1.047625,0.004078,-0.001353
1.030375,1.048442,0.004155,-0.001317
1.031056,1.050286,0.004159,-0.001367
1.031248,1.052323,0.004130,-0.001295
1.031887,1.053133,0.004165,-0.001223
1.032209,1.053667,0.004252,-0.001149
1.032339,1.054940,0.004288,-0.001149
1.033092,1.055616,0.004249,-0.001149
1.033673,1.056741,0.004252,-0.001026
1.034006,1.057515,0.004286,-0.000941
1.034376,1.058322,0.004333,-0.000780
1.034870,1.059621,0.004306,-0.000705
1.035424,1.061855,0.004193,-0.000668
1.035854,1.063284,0.004196,-0.000620
1.036691,1.064397,0.004241,-0.000534
1.037355,1.065230,0.004319,-0.000410
1.038364,1.066613,0.004292,-0.000297
1.038723,1.067124,0.004221,-0.000098
1.039504,1.068070,0.004256,0.000064
1.040188,1.069749,0.004302,0.000188
1.040225,1.071088,0.004338,0.000264
1.040850,1.072597,0.004343,0.000340
1.040968,1.073212,0.004314,0.000453
1.041564,1.074164,0.004349,0.000566
1.042324,1.075916,0.004437,0.000679
1.042724,1.077074,0.004474,0.000718
1.042944,1.077667,0.004435,0.000756
1.043545,1.078586,0.004512,0.000870
1.044192,1.079542,0.004633,0.001021
1.045121,1.080912,0.004713,0.001135
1.045615,1.081849,0.004760,0.001211
1.046661,1.083055,0.004722,0.001213
1.047485,1.084595,0.004800,0.001214
1.047680,1.085884,0.004922,0.001252
1.047985,1.087493,0.005001,0.001329
1.048602,1.088235,0.005049,0.001330
1.048936,1.089224,0.005054,0.001331
1.049386,1.090426,0.005327,0.001332
1.051101,1.092510,0.005568,0.001333
1.051302,1.093814,0.005725,0.001373
1.051419,1.094727,0.005805,0.001374
1.052362,1.095096,0.006037,0.001375
1.052747,1.095836,0.006312,0.001376
1.053066,1.096700,0.006501,0.001454
1.053772,1.098343,0.006658,0.001609
1.054012,1.100331,0.006772,0.001649
1.055228,1.101700,0.007005,0.001650
1.056264,1.102847,0.007238,0.001690
1.057172,1.104264,0.007363,0.001807
1.057732,1.105709,0.007488,0.001963
1.057939,1.106990,0.007603,0.002041
1.058669,1.108914,0.007761,0.002042
1.059024,1.111129,0.007800,0.002082
1.060284,1.113035,0.007839,0.002200
1.061264,1.113951,0.007922,0.002279
1.062304,1.115301,0.008049,0.002319
1.062774,1.116126,0.008055,0.002437
1.063099,1.118445,0.008106,0.002555
1.063249,1.119589,0.008234,0.002596
1.063958,1.120040,0.008362,0.002638
1.064405,1.121291,0.008368,0.002795
1.065086,1.122845,0.008375,0.003083
1.066454,1.123880,0.008503,0.003332
1.067533,1.125610,0.008709,0.003504
1.068575,1.127423,0.008914,0.003638
1.068957,1.128658,0.009010,0.003888
1.069696,1.129469,0.009106,0.004216
1.070308,1.130538,0.009312,0.004506
1.070754,1.133135,0.009597,0.004718
1.071536,1.134825,0.009837,0.004930
1.073175,1.135900,0.010123,0.005221
1.073839,1.136592,0.010452,0.005433
1.074929,1.138196,0.010693,0.005725
1.075358,1.139667,0.010780,0.006017
1.075978,1.140426,0.010944,0.006191
1.076741,1.143460,0.011275,0.006327
1.077326,1.144321,0.011606,0.006450
1.077954,1.144746,0.011815,0.006692
1.078111,1.145611,0.012015,0.007027
1.080083,1.148358,0.012180,0.007362
1.081311,1.149603,0.012581,0.007659
1.082357,1.151081,0.013027,0.007955
1.083051,1.151897,0.013317,0.008252
1.083766,1.152886,0.013496,0.008589
1.084655,1.155241,0.013754,0.008926
1.085082,1.156324,0.014047,0.009264
1.086129,1.157855,0.014374,0.009602
1.087485,1.160154,0.014745,0.009900
1.088325,1.160866,0.015364,0.010359
1.089157,1.161373,0.016019,0.010938
1.090649,1.162333,0.016629,0.011557
1.091276,1.164026,0.017285,0.012137
1.092015,1.165748,0.017987,0.012599
1.092740,1.166774,0.018656,0.013143
1.093381,1.169777,0.019359,0.013807
1.093473,1.170201,0.019940,0.014513
1.094384,1.171618,0.020680,0.015259
1.095229,1.172654,0.021547,0.016006
1.096498,1.173437,0.022573,0.016767
1.098456,1.174070,0.023680,0.017691
1.099588,1.175689,0.024790,0.018736
1.099984,1.176362,0.026027,0.019998
1.100938,1.178782,0.027436,0.021343
1.101688,1.179765,0.028838,0.022785
1.102903,1.180950,0.030208,0.024147
1.103943,1.182022,0.030779,0.024758
1.105309,1.183033,0.031383,0.025414
1.105891,1.184916,0.032030,0.026180
1.107184,1.186495,0.032793,0.026846
1.108406,1.186899,0.033706,0.027463
1.108830,1.188496,0.034764,0.028148
1.110101,1.190463,0.035699,0.028926
