Lambda11(-),Lambda22(-),Sigma11(MPa),Sigma22(MPa)
1.000000,1.000000,0.000000,0.000000
1.429764,1.308735,0.002905,-0.000253
1.430967,1.307810,0.003006,-0.000184
1.431740,1.307679,0.002954,-0.000129
1.435253,1.307923,0.002972,-0.000083
1.435797,1.308170,0.003043,-0.000046
1.436524,1.308197,0.003104,-0.000070
1.437120,1.308356,0.003192,-0.000092
1.437903,1.308328,0.003268,-0.000061
1.438742,1.308321,0.003316,-0.000098
1.439564,1.308488,0.003197,-0.000099
1.443230,1.308617,0.003167,-0.000136
1.443603,1.308700,0.003126,-0.000087
1.446662,1.308892,0.003206,-0.000087
1.447519,1.308867,0.003166,-0.000087
1.448234,1.308846,0.003214,-0.000086
1.449272,1.308910,0.003306,-0.000050
1.450403,1.309044,0.003266,-0.000050
1.450923,1.309007,0.003314,-0.000099
1.451799,1.309109,0.003396,-0.000061
1.452105,1.309464,0.003400,-0.000111
1.452315,1.310473,0.003404,-0.000111
1.454665,1.310412,0.003285,-0.000111
1.455753,1.310805,0.003256,-0.000161
1.456768,1.311354,0.003215,-0.000074
1.459218,1.311413,0.003387,-0.000025
1.460529,1.311371,0.003514,0.000012
1.460791,1.311372,0.003562,0.000012
1.462225,1.312014,0.003611,0.000062
1.464298,1.310926,0.003615,0.000100
1.464883,1.311446,0.003619,0.000100
1.465546,1.310811,0.003624,0.000150
1.466637,1.310742,0.003673,0.000188
1.469060,1.311014,0.003677,0.000187
1.470733,1.311147,0.003647,0.000188
1.471383,1.311702,0.003686,0.000188
1.472281,1.312158,0.003690,0.000238
1.473937,1.312641,0.003739,0.000325
1.474144,1.313173,0.003697,0.000413
1.475601,1.313242,0.003701,0.000413
1.476300,1.313420,0.003740,0.000413
1.477979,1.313851,0.003698,0.000464
1.479667,1.314155,0.003702,0.000501
1.481231,1.314178,0.003660,0.000539
1.481826,1.314315,0.003664,0.000502
1.484000,1.314065,0.003622,0.000502
1.484806,1.314174,0.003580,0.000452
1.486390,1.314743,0.003584,0.000453
1.487109,1.314987,0.003588,0.000541
1.488872,1.315260,0.003593,0.000617
1.490539,1.316641,0.003516,0.000617
1.492796,1.317117,0.003474,0.000731
1.492454,1.317386,0.003477,0.000770
1.493533,1.317322,0.003563,0.000770
1.495299,1.317836,0.003567,0.000808
1.497428,1.318230,0.003490,0.000885
1.497571,1.318398,0.003540,0.000999
1.498611,1.319091,0.003673,0.001038
1.499404,1.319371,0.003724,0.001114
1.500428,1.319400,0.003727,0.001305
1.500707,1.319512,0.003731,0.001458
1.501807,1.319678,0.003735,0.001585
1.502398,1.319787,0.003775,0.001700
1.503958,1.320069,0.003778,0.001777
1.505090,1.320484,0.003736,0.001778
1.507390,1.321068,0.003823,0.001944
1.508871,1.321436,0.003910,0.001945
1.510157,1.322100,0.004044,0.002022
1.510554,1.322336,0.004049,0.002099
1.512320,1.321983,0.004053,0.002215
1.512891,1.323505,0.004104,0.002254
1.513861,1.324016,0.004192,0.002294
1.515231,1.324374,0.004234,0.002333
1.516990,1.324553,0.004274,0.002334
1.517540,1.325209,0.004278,0.002298
1.518090,1.325456,0.004330,0.002261
1.518618,1.325687,0.004465,0.002338
1.520031,1.325979,0.004555,0.002340
1.520663,1.326859,0.004607,0.002380
1.521853,1.327044,0.004659,0.002419
1.523656,1.327796,0.004712,0.002459
1.523993,1.328055,0.004802,0.002499
1.527418,1.329552,0.004844,0.002539
1.528652,1.329692,0.004850,0.002540
1.529047,1.330444,0.004902,0.002580
1.530283,1.330673,0.004991,0.002620
1.531421,1.331581,0.005034,0.002622
1.532155,1.331836,0.005040,0.002700
1.532755,1.332931,0.005094,0.002740
1.534728,1.333405,0.005183,0.002781
1.535402,1.333636,0.005310,0.002898
1.538555,1.334018,0.005401,0.002938
1.539694,1.334392,0.005456,0.002940
1.540693,1.335451,0.005669,0.003058
1.541994,1.335820,0.005796,0.003098
1.542688,1.336369,0.005974,0.003178
1.544988,1.336838,0.006115,0.003257
1.545761,1.337816,0.006208,0.003259
1.546824,1.338660,0.006472,0.003377
1.549475,1.339475,0.006772,0.003379
1.550745,1.340290,0.006988,0.003498
1.552587,1.341174,0.007168,0.003655
1.555180,1.342892,0.007397,0.003618
1.555641,1.343480,0.007613,0.003737
1.557894,1.343939,0.007879,0.003778
1.558688,1.344877,0.008059,0.003780
1.560177,1.345240,0.008190,0.003860
1.562840,1.345684,0.008322,0.003979
1.565036,1.346248,0.008417,0.003903
1.565991,1.346682,0.008648,0.003984
1.567925,1.348467,0.008794,0.004117
1.568459,1.348487,0.008941,0.004197
1.569933,1.349484,0.009036,0.004317
1.571959,1.349874,0.009096,0.004358
1.572748,1.350763,0.009206,0.004531
1.575130,1.351108,0.009404,0.004533
1.578686,1.353372,0.009514,0.004628
1.580956,1.354000,0.009524,0.004958
1.581619,1.354494,0.009673,0.005131
1.583174,1.356182,0.009960,0.005344
1.586398,1.357152,0.010285,0.005556
1.588165,1.358026,0.010573,0.005691
1.590278,1.358683,0.010898,0.005825
1.592864,1.359414,0.011224,0.006116
1.594723,1.360969,0.011551,0.006330
1.595581,1.361761,0.011828,0.006452
1.596777,1.363306,0.012106,0.006626
1.599263,1.363823,0.012484,0.006880
1.600180,1.364157,0.012864,0.007213
1.602418,1.364373,0.013193,0.007533
1.605874,1.365449,0.013563,0.007985
1.606940,1.366749,0.014161,0.008307
1.608363,1.367535,0.014862,0.008602
1.610292,1.368028,0.015475,0.008937
1.611825,1.368715,0.016040,0.009352
1.614453,1.370350,0.016657,0.009807
1.616736,1.370573,0.017442,0.010461
1.618200,1.372191,0.018242,0.011076
1.621698,1.372957,0.019133,0.011652
1.623601,1.374306,0.019882,0.012148
1.625295,1.375798,0.020723,0.012764
1.627478,1.376669,0.021525,0.013553
1.628685,1.377518,0.022600,0.014344
1.630682,1.378068,0.023716,0.015095
1.632449,1.379250,0.024975,0.015848
1.633503,1.379682,0.026251,0.016694
1.638075,1.381913,0.027479,0.017581
1.638513,1.382163,0.028839,0.018376
1.642171,1.382687,0.030291,0.019251
1.643974,1.383092,0.031839,0.020207
1.645282,1.384212,0.033584,0.021125
1.647039,1.384581,0.035439,0.022137
1.650768,1.385167,0.037283,0.023231
1.651571,1.386415,0.039183,0.024365
1.653075,1.387020,0.041504,0.025795
1.655159,1.387851,0.043922,0.027267
1.657771,1.389001,0.046656,0.028781
1.661615,1.389818,0.049226,0.030215
1.662363,1.390726,0.051890,0.031732
1.664450,1.392391,0.054692,0.033330
1.666990,1.393283,0.057552,0.034930
1.670789,1.393639,0.060641,0.036693
1.671511,1.395397,0.063987,0.038712
1.673974,1.396935,0.067576,0.040814
1.676334,1.397892,0.071451,0.043054
1.676573,1.397908,0.075334,0.045592
1.678573,1.399068,0.079452,0.048038
1.681593,1.400047,0.084053,0.050568
1.682885,1.400449,0.088994,0.053356
1.685626,1.401704,0.094133,0.056229
1.688793,1.403056,0.099721,0.059281
1.691730,1.404136,0.105653,0.062417
1.694292,1.405791,0.112103,0.065881
1.695972,1.405927,0.119047,0.069564
1.698042,1.407104,0.126257,0.073387
1.699254,1.407567,0.133411,0.077117
1.701992,1.408777,0.136934,0.078978
1.703538,1.409008,0.140490,0.080874
1.706843,1.410197,0.144216,0.082882
1.710411,1.410907,0.147978,0.084847
1.713117,1.411911,0.152044,0.086757
1.714467,1.413370,0.156226,0.088818
1.716889,1.414782,0.160464,0.091159
