Lambda11(-),Lambda22(-),Sigma11(MPa),Sigma22(MPa)
1.000000,1.000000,0.000000,0.000000
1.000000,1.000000,0.002277,0.000018
0.999375,0.999432,0.002313,0.000000
0.999874,0.999502,0.002302,-0.000014
1.000050,0.999863,0.002294,-0.000063
1.000385,0.999789,0.002288,-0.000070
1.000064,0.999777,0.002282,-0.000075
1.000396,0.999255,0.002278,-0.000110
1.001284,0.998922,0.002274,-0.000112
1.001886,0.998851,0.002251,-0.000140
1.002018,0.998559,0.002289,-0.000140
1.002491,0.998567,0.002318,-0.000140
1.004503,0.999500,0.002320,-0.000140
1.005477,0.999480,0.002357,-0.000168
1.005943,0.999196,0.002360,-0.000168
1.006370,0.999247,0.002397,-0.000168
1.006670,0.999592,0.002339,-0.000196
1.007098,0.999426,0.002315,-0.000168
1.008432,0.999369,0.002318,-0.000168
1.009613,0.998921,0.002347,-0.000084
1.010326,0.998937,0.002349,-0.000056
1.010749,0.998932,0.002352,-0.000028
1.011505,0.999085,0.002354,-0.000028
1.011835,0.999068,0.002357,-0.000056
1.012547,0.999108,0.002359,0.000028
1.013219,0.998958,0.002300,0.000057
1.014280,0.998876,0.002303,0.000141
1.015669,0.998904,0.002306,0.000198
1.016269,0.998945,0.002335,0.000226
1.016825,0.998949,0.002338,0.000226
1.017531,0.998868,0.002341,0.000283
1.017961,0.999153,0.002343,0.000340
1.018448,0.998653,0.002346,0.000312
1.019545,0.998825,0.002348,0.000312
1.020244,0.999025,0.002324,0.000312
1.020817,0.998690,0.002327,0.000341
1.022014,0.998644,0.002356,0.000398
1.022638,0.998645,0.002359,0.000511
1.023702,0.998736,0.002361,0.000568
1.024134,0.998807,0.002391,0.000597
1.024752,0.999222,0.002456,0.000597
1.025307,0.999915,0.002459,0.000598
1.026098,1.000054,0.002462,0.000598
1.026480,1.000102,0.002465,0.000684
1.027153,1.000155,0.002495,0.000770
1.027766,1.000539,0.002561,0.000770
1.029098,1.000925,0.002591,0.000800
1.030381,1.001109,0.002621,0.000799
1.031327,1.001182,0.002651,0.000857
1.032389,1.001282,0.002681,0.000828
1.033326,1.001795,0.002775,0.000858
1.033655,1.001972,0.002750,0.000829
1.034063,1.002253,0.002780,0.000830
1.035072,1.002706,0.002810,0.000830
1.035430,1.003151,0.002850,0.000860
1.035960,1.003465,0.002854,0.000889
1.037062,1.003730,0.002829,0.000889
1.037507,1.003755,0.002859,0.000918
1.037921,1.004659,0.002899,0.000948
1.038410,1.005708,0.002967,0.000891
1.038897,1.006251,0.002971,0.000892
1.040549,1.006748,0.002946,0.000892
1.041650,1.007253,0.002986,0.000979
1.043296,1.007707,0.003054,0.001076
1.044126,1.007760,0.003159,0.001134
1.044676,1.008809,0.003136,0.001135
1.045341,1.008916,0.003203,0.001164
1.045855,1.010096,0.003206,0.001232
1.046277,1.010877,0.003275,0.001290
1.047252,1.011260,0.003306,0.001262
1.048200,1.012293,0.003273,0.001388
1.048955,1.012585,0.003341,0.001515
1.049916,1.013447,0.003409,0.001583
1.051136,1.013489,0.003441,0.001584
1.051527,1.013665,0.003483,0.001643
1.052093,1.014907,0.003487,0.001711
1.053603,1.015858,0.003489,0.001838
1.054518,1.016626,0.003493,0.001936
1.055183,1.016884,0.003535,0.001966
1.056090,1.017627,0.003540,0.002035
1.056549,1.018308,0.003506,0.002104
1.057979,1.019169,0.003472,0.002173
1.058920,1.019863,0.003579,0.002203
1.060222,1.021174,0.003621,0.002233
1.061502,1.022276,0.003626,0.002331
1.061619,1.022957,0.003600,0.002304
1.063636,1.023413,0.003633,0.002305
1.064565,1.024580,0.003637,0.002268
1.064969,1.025378,0.003708,0.002308
1.065843,1.026647,0.003646,0.002377
1.067047,1.027949,0.003678,0.002437
1.068165,1.028407,0.003710,0.002380
1.069306,1.029655,0.003809,0.002352
1.069506,1.029681,0.003814,0.002353
1.070668,1.030184,0.003848,0.002384
1.070988,1.031077,0.003957,0.002385
1.072608,1.031886,0.004094,0.002416
1.074462,1.033326,0.004167,0.002388
1.075979,1.034279,0.004268,0.002428
1.076663,1.034900,0.004407,0.002430
1.077288,1.035664,0.004507,0.002460
1.078379,1.036762,0.004685,0.002433
1.079652,1.037341,0.004825,0.002473
1.080938,1.038468,0.004899,0.002593
1.081723,1.039690,0.005106,0.002525
1.082666,1.040697,0.005246,0.002556
1.084076,1.041375,0.005493,0.002558
1.085164,1.042279,0.005605,0.002648
1.086875,1.042595,0.005746,0.002649
1.088386,1.044184,0.005859,0.002651
1.089502,1.044867,0.006001,0.002711
1.089800,1.046271,0.006114,0.002772
1.091625,1.047079,0.006189,0.002892
1.092232,1.048598,0.006234,0.002953
1.092830,1.049024,0.006280,0.002984
1.094997,1.050428,0.006461,0.002956
1.095798,1.050940,0.006469,0.003017
1.096696,1.051726,0.006515,0.003048
1.097700,1.052982,0.006561,0.003021
1.099625,1.054146,0.006569,0.003091
1.100945,1.054850,0.006615,0.003034
1.102510,1.056009,0.006662,0.003095
1.104614,1.057573,0.006709,0.003067
1.105220,1.058286,0.006716,0.003098
1.107164,1.058908,0.006724,0.003159
1.108181,1.059534,0.006771,0.003161
1.108558,1.061013,0.006887,0.003193
1.109500,1.061696,0.006964,0.003106
1.110165,1.063445,0.006972,0.003167
1.110734,1.064103,0.007019,0.003169
1.111788,1.064447,0.007096,0.003350
1.112604,1.065301,0.007244,0.003443
1.114159,1.066347,0.007361,0.003564
1.115349,1.066537,0.007439,0.003627
1.116787,1.068094,0.007587,0.003718
1.117805,1.069040,0.007775,0.003901
1.118365,1.069841,0.007954,0.004053
1.119818,1.071013,0.008174,0.004176
1.120951,1.071392,0.008434,0.004328
1.122079,1.072981,0.008694,0.004421
1.123856,1.073533,0.008914,0.004573
1.124773,1.074505,0.009024,0.004697
1.126453,1.075017,0.009215,0.004879
1.127399,1.076285,0.009476,0.004972
1.128250,1.078070,0.009656,0.005156
1.129031,1.078857,0.009889,0.005290
1.130609,1.080915,0.010051,0.005353
1.131109,1.081325,0.010243,0.005416
1.131927,1.081420,0.010476,0.005480
1.132914,1.081954,0.010711,0.005644
1.134859,1.082813,0.010864,0.005778
1.135979,1.083704,0.011100,0.005913
1.136983,1.084488,0.011409,0.006200
1.138249,1.085469,0.011718,0.006456
1.140099,1.086645,0.012028,0.006713
1.141758,1.087650,0.012369,0.006878
1.143423,1.088375,0.012792,0.007075
1.144172,1.089565,0.013246,0.007332
1.145645,1.090229,0.013773,0.007620
1.147166,1.090964,0.014341,0.007908
1.148683,1.092017,0.014859,0.008156
1.149866,1.092477,0.015347,0.008546
1.151146,1.093330,0.015836,0.009028
1.153434,1.095438,0.016439,0.009510
1.154211,1.097125,0.017044,0.009953
1.155617,1.097992,0.017795,0.010335
1.157403,1.098582,0.018548,0.010911
1.158082,1.099997,0.019189,0.011366
1.159403,1.100232,0.019977,0.011749
1.161384,1.100955,0.020953,0.012327
1.162617,1.101966,0.022015,0.012997
1.163879,1.102592,0.023079,0.013607
1.165125,1.102982,0.024250,0.014350
1.167617,1.103597,0.025540,0.015156
1.169145,1.105569,0.026946,0.016054
1.170137,1.106796,0.028355,0.016994
1.171676,1.107980,0.029051,0.017368
1.174315,1.108900,0.029853,0.017728
1.176197,1.110002,0.030644,0.018148
1.178305,1.110880,0.031478,0.018601
1.180065,1.111322,0.032321,0.019144
1.181616,1.112511,0.033158,0.019484
1.182958,1.112874,0.034199,0.019907
