Lambda11(-),Lambda22(-),Sigma11(MPa),Sigma22(MPa)
1.000000,1.000000,0.000000,0.000000
1.000000,1.000000,0.002243,-0.000253
1.001073,0.999175,0.002269,-0.000184
1.001073,0.999175,0.002290,-0.000258
1.003954,0.999586,0.002308,-0.000201
1.004258,0.999921,0.002378,-0.000153
1.004258,0.999921,0.002386,-0.000213
1.004976,1.000234,0.002441,-0.000171
1.005422,1.000369,0.002411,-0.000184
1.005422,1.000369,0.002446,-0.000149
1.005945,1.000602,0.002448,-0.000111
1.006502,1.000890,0.002407,-0.000074
1.006502,1.000890,0.002442,-0.000112
1.008820,1.001189,0.002520,-0.000236
1.009834,1.001283,0.002477,-0.000323
1.009834,1.001283,0.002524,-0.000236
1.012638,1.001870,0.002527,-0.000236
1.013013,1.002050,0.002573,-0.000323
1.013013,1.002050,0.002575,-0.000236
1.013676,1.003637,0.002622,-0.000198
1.013838,1.004025,0.002580,-0.000123
1.013838,1.004025,0.002627,0.000001
1.014648,1.004993,0.002630,-0.000048
1.015050,1.005533,0.002665,-0.000049
1.015050,1.005533,0.002712,0.000025
1.015888,1.006115,0.002759,-0.000012
1.018264,1.006373,0.002806,-0.000048
1.018264,1.006373,0.002853,-0.000012
1.019489,1.008519,0.002934,-0.000013
1.019818,1.008878,0.003059,-0.000014
1.019818,1.008878,0.003062,-0.000102
1.020642,1.009789,0.003110,-0.000102
1.021794,1.010063,0.003112,-0.000014
1.021794,1.010063,0.003114,-0.000064
1.022177,1.010665,0.003117,-0.000152
1.023046,1.011354,0.003164,-0.000151
1.023046,1.011354,0.003167,-0.000277
1.023789,1.013279,0.003170,-0.000150
1.023832,1.013553,0.003217,-0.000100
1.023832,1.013553,0.003220,-0.000049
1.023978,1.014412,0.003223,0.000027
1.023993,1.014769,0.003225,-0.000062
1.023993,1.014769,0.003228,0.000065
1.023786,1.015933,0.003231,0.000306
1.023920,1.016582,0.003233,0.000395
1.023920,1.016582,0.003236,0.000599
1.025116,1.017898,0.003194,0.000637
1.025620,1.018325,0.003197,0.000586
1.025620,1.018325,0.003245,0.000676
1.026520,1.019391,0.003247,0.000727
1.026687,1.020939,0.003250,0.000728
1.026687,1.020939,0.003253,0.000971
1.027757,1.022474,0.003255,0.001011
1.028036,1.023071,0.003258,0.001089
1.028036,1.023071,0.003261,0.001166
1.029616,1.024135,0.003264,0.001206
1.030089,1.024339,0.003266,0.001373
1.030089,1.024339,0.003269,0.001451
1.030706,1.025121,0.003272,0.001414
1.031685,1.025830,0.003321,0.001492
1.031685,1.025830,0.003323,0.001455
1.032890,1.026962,0.003326,0.001534
1.033140,1.027517,0.003375,0.001702
1.033140,1.027517,0.003378,0.001742
1.034175,1.029327,0.003427,0.001820
1.034404,1.029581,0.003477,0.001860
1.034404,1.029581,0.003479,0.001824
1.035334,1.031560,0.003529,0.001825
1.035628,1.032300,0.003578,0.001866
1.035628,1.032300,0.003627,0.001906
1.037154,1.033481,0.003630,0.001908
1.038051,1.033705,0.003633,0.001948
1.038051,1.033705,0.003717,0.001950
1.040090,1.035631,0.003767,0.001991
1.039804,1.035787,0.003770,0.002071
1.039804,1.035787,0.003773,0.002111
1.041070,1.036347,0.003823,0.002113
1.041406,1.037460,0.003908,0.002115
1.041406,1.037460,0.003993,0.002155
1.042971,1.039707,0.003997,0.002196
1.043372,1.040777,0.003953,0.002237
1.043372,1.040777,0.004003,0.002239
1.044585,1.042186,0.004042,0.002281
1.045028,1.042507,0.004080,0.002322
1.045028,1.042507,0.004084,0.002324
1.046027,1.045146,0.004087,0.002326
1.046423,1.045651,0.004172,0.002367
1.046423,1.045651,0.004223,0.002449
1.048112,1.046945,0.004310,0.002530
1.048098,1.048083,0.004266,0.002492
1.048098,1.048083,0.004268,0.002494
1.049358,1.049666,0.004307,0.002576
1.049581,1.050631,0.004347,0.002737
1.049581,1.050631,0.004399,0.002819
1.050847,1.051192,0.004355,0.002820
1.051834,1.052328,0.004405,0.002823
1.051834,1.052328,0.004444,0.002905
1.053057,1.055488,0.004532,0.002987
1.054264,1.055986,0.004583,0.003029
1.054264,1.055986,0.004539,0.003031
1.055831,1.058014,0.004625,0.003073
1.056878,1.059223,0.004677,0.003156
1.056878,1.059223,0.004802,0.003239
1.058064,1.060452,0.004806,0.003202
1.058388,1.061711,0.004809,0.003204
1.058388,1.061711,0.004896,0.003327
1.059621,1.063486,0.005068,0.003504
1.060767,1.064318,0.005121,0.003602
1.060767,1.064318,0.005126,0.003645
1.062714,1.066104,0.005213,0.003728
1.062988,1.066781,0.005421,0.003946
1.062988,1.066781,0.005679,0.004206
1.064393,1.068850,0.005853,0.004385
1.065704,1.070261,0.006027,0.004645
1.065704,1.070261,0.006332,0.004985
1.067171,1.072541,0.006590,0.005286
1.067565,1.073738,0.006801,0.005506
1.067565,1.073738,0.006856,0.005686
1.069607,1.075682,0.007067,0.005988
1.070821,1.076255,0.007410,0.006329
1.070821,1.076255,0.007718,0.006673
1.072430,1.077577,0.007907,0.006883
1.073272,1.078378,0.008132,0.007010
1.073272,1.078378,0.008344,0.007232
1.074578,1.080811,0.008604,0.007535
1.075118,1.082573,0.008830,0.007745
1.075118,1.082573,0.009020,0.007915
1.077671,1.085301,0.009125,0.008126
1.079068,1.085748,0.009266,0.008338
1.079068,1.085748,0.009445,0.008591
1.080682,1.087579,0.009673,0.008844
1.081539,1.088201,0.009987,0.009138
1.081539,1.088201,0.010337,0.009433
1.083630,1.089990,0.010701,0.009728
1.084128,1.091430,0.010979,0.010078
1.084128,1.091430,0.011245,0.010306
1.085493,1.093057,0.011463,0.010535
1.086095,1.095369,0.011731,0.010928
1.086095,1.095369,0.012097,0.011488
1.087663,1.098402,0.012463,0.012048
1.088998,1.099023,0.012695,0.012443
1.088998,1.099023,0.012964,0.012880
1.090784,1.100993,0.013406,0.013401
1.091570,1.102498,0.013935,0.013881
1.091570,1.102498,0.014391,0.014321
1.094510,1.104684,0.014711,0.014900
1.095315,1.105588,0.015033,0.015480
1.095315,1.105588,0.015455,0.016186
1.096649,1.107234,0.015952,0.016934
1.097201,1.108345,0.016623,0.017669
1.097201,1.108345,0.017221,0.018461
1.099604,1.110226,0.017856,0.019254
1.100899,1.110985,0.018630,0.020132
1.100899,1.110985,0.019404,0.020971
1.102353,1.114131,0.020267,0.021894
1.103319,1.115155,0.021257,0.023085
1.103319,1.115155,0.022298,0.024320
1.104886,1.116764,0.023304,0.025697
1.105855,1.117361,0.024312,0.027074
1.105855,1.117361,0.025583,0.028536
1.108380,1.119198,0.026992,0.030030
1.109400,1.121227,0.028455,0.031666
1.109400,1.121227,0.029945,0.033389
1.110683,1.124212,0.031488,0.035030
1.112336,1.125016,0.033135,0.036857
1.112336,1.125016,0.034997,0.038883
1.113878,1.127639,0.037051,0.041053
1.114827,1.128231,0.038958,0.043227
1.114827,1.128231,0.041144,0.045545
1.116635,1.130155,0.043423,0.047909
1.117505,1.131303,0.045755,0.050405
1.117505,1.131303,0.048231,0.052906
1.120671,1.133107,0.050926,0.055368
1.121085,1.134612,0.053764,0.058176
1.121085,1.134612,0.056609,0.061172
1.123440,1.136958,0.059635,0.064172
1.123837,1.138498,0.062666,0.067304
1.123837,1.138498,0.064145,0.068669
1.125820,1.141000,0.065647,0.070290
1.127431,1.142061,0.067159,0.071895
1.127431,1.142061,0.068700,0.073441
1.129451,1.143922,0.070205,0.075079
1.130590,1.144982,0.071975,0.076794
1.130590,1.144982,0.073659,0.078505
