Lambda11(-),Lambda22(-),Sigma11(MPa),Sigma22(MPa)
1.000000,1.000000,0.000000,0.000000
1.500708,1.653424,0.001695,-0.000035
1.500346,1.651987,0.001752,0.000047
1.500802,1.652348,0.001745,0.000070
1.500897,1.652338,0.001740,0.000090
1.501822,1.653110,0.001779,0.000070
1.502622,1.653591,0.001813,0.000087
1.502663,1.653642,0.001841,0.000070
1.505983,1.653938,0.001866,0.000056
1.506960,1.653806,0.001997,0.000084
1.506939,1.653741,0.002033,0.000028
1.507827,1.656350,0.002035,0.000028
1.507901,1.656502,0.002071,0.000056
1.508277,1.656479,0.002134,0.000055
1.508231,1.657264,0.002170,0.000140
1.509222,1.655644,0.002172,0.000112
1.509204,1.655742,0.002174,0.000084
1.510227,1.655287,0.002176,0.000028
1.511356,1.657915,0.002212,-0.000028
1.510969,1.657899,0.002248,0.000000
1.511735,1.657861,0.002250,0.000000
1.514435,1.657948,0.002252,0.000000
1.514477,1.657950,0.002280,0.000000
1.515190,1.658378,0.002282,0.000029
1.516776,1.658843,0.002310,-0.000057
1.517250,1.658957,0.002312,-0.000029
1.517575,1.659780,0.002314,-0.000029
1.519042,1.661425,0.002316,-0.000000
1.519521,1.661370,0.002292,0.000028
1.519759,1.662535,0.002294,-0.000086
1.520506,1.664770,0.002296,-0.000086
1.520503,1.665257,0.002298,-0.000086
1.520821,1.666830,0.002299,-0.000086
1.522130,1.667286,0.002301,-0.000144
1.522162,1.667202,0.002303,-0.000287
1.524057,1.667704,0.002305,-0.000287
1.525298,1.668856,0.002307,-0.000258
1.525287,1.668848,0.002282,-0.000287
1.525710,1.670624,0.002284,-0.000431
1.526346,1.672358,0.002260,-0.000403
1.526338,1.672462,0.002262,-0.000403
1.527330,1.674602,0.002290,-0.000403
1.528099,1.677378,0.002292,-0.000461
1.528039,1.677374,0.002294,-0.000432
1.530597,1.679619,0.002296,-0.000433
1.530767,1.681461,0.002298,-0.000375
1.530739,1.681401,0.002264,-0.000374
1.533157,1.682833,0.002230,-0.000404
1.533572,1.684267,0.002232,-0.000347
1.533596,1.684354,0.002234,-0.000260
1.535364,1.687292,0.002236,-0.000202
1.536566,1.688986,0.002301,-0.000172
1.536590,1.688980,0.002303,-0.000115
1.537586,1.691055,0.002305,0.000001
1.538651,1.693656,0.002306,0.000059
1.538616,1.693717,0.002372,0.000147
1.538718,1.694664,0.002410,0.000234
1.540038,1.695026,0.002412,0.000351
1.540018,1.694923,0.002414,0.000381
1.542250,1.698092,0.002443,0.000469
1.542779,1.699227,0.002508,0.000469
1.542782,1.699257,0.002573,0.000528
1.545111,1.702908,0.002611,0.000675
1.546023,1.704097,0.002613,0.000763
1.546026,1.704091,0.002679,0.000822
1.548039,1.707220,0.002745,0.000823
1.548511,1.708728,0.002711,0.000853
1.548680,1.708655,0.002713,0.000942
1.551367,1.711378,0.002742,0.001060
1.552278,1.712245,0.002808,0.001149
1.552305,1.712196,0.002838,0.001180
1.553455,1.714330,0.002804,0.001211
1.555726,1.717216,0.002806,0.001241
1.555694,1.717212,0.002872,0.001301
1.556463,1.721154,0.002939,0.001362
1.557305,1.721352,0.002942,0.001422
1.557303,1.721312,0.002916,0.001453
1.558901,1.724086,0.002946,0.001454
1.559382,1.725040,0.003012,0.001514
1.559377,1.725078,0.003080,0.001575
1.562519,1.729117,0.003082,0.001635
1.563753,1.731064,0.003057,0.001636
1.563823,1.731029,0.003124,0.001708
1.565256,1.735034,0.003228,0.001779
1.566204,1.736480,0.003258,0.001781
1.566226,1.736461,0.003197,0.001782
1.570203,1.739697,0.003171,0.001783
1.571189,1.741139,0.003201,0.001785
1.571121,1.741309,0.003232,0.001786
1.572807,1.745591,0.003272,0.001787
1.573636,1.747928,0.003237,0.001789
1.573579,1.747862,0.003239,0.001790
1.575567,1.751455,0.003279,0.001832
1.576407,1.751428,0.003310,0.001873
1.576438,1.751342,0.003276,0.001915
1.579214,1.756469,0.003241,0.001917
1.579751,1.757424,0.003271,0.001918
1.579738,1.757350,0.003274,0.001890
1.582703,1.761434,0.003278,0.001892
1.583668,1.763998,0.003253,0.001995
1.583126,1.764085,0.003227,0.002037
1.586228,1.768542,0.003257,0.002079
1.587213,1.769963,0.003297,0.002151
1.587850,1.769948,0.003338,0.002254
1.588923,1.772671,0.003276,0.002327
1.590450,1.774367,0.003278,0.002328
1.590549,1.774403,0.003440,0.002370
1.593683,1.781343,0.003538,0.002433
1.594348,1.783972,0.003579,0.002497
1.594173,1.783790,0.003515,0.002498
1.596124,1.786243,0.003584,0.002500
1.596232,1.787077,0.003691,0.002542
1.596279,1.787079,0.003826,0.002605
1.597833,1.793396,0.003858,0.002638
1.599686,1.795586,0.003889,0.002580
1.599689,1.795521,0.004053,0.002540
1.602613,1.799258,0.004293,0.002573
1.603018,1.801035,0.004458,0.002606
1.602990,1.801075,0.004528,0.002640
1.604622,1.805829,0.004665,0.002642
1.606315,1.808179,0.004839,0.002716
1.606307,1.808219,0.004910,0.002811
1.608042,1.812462,0.005019,0.002906
1.610551,1.815694,0.005156,0.002971
1.610465,1.815840,0.005398,0.003035
1.612707,1.818736,0.005574,0.003171
1.614362,1.822045,0.005711,0.003390
1.614475,1.822042,0.005745,0.003548
1.616251,1.828008,0.005816,0.003676
1.616970,1.828746,0.005992,0.003896
1.616935,1.828649,0.006102,0.004157
1.618985,1.832270,0.006107,0.004346
1.619502,1.834176,0.006151,0.004505
1.619503,1.834210,0.006223,0.004633
1.621729,1.838486,0.006295,0.004824
1.623180,1.842106,0.006367,0.005014
1.622474,1.842027,0.006479,0.005142
1.626681,1.847780,0.006523,0.005209
1.628285,1.849599,0.006528,0.005307
1.628391,1.850342,0.006534,0.005467
1.630428,1.854197,0.006578,0.005627
1.631257,1.857320,0.006690,0.005705
1.631114,1.857417,0.006841,0.005815
1.633713,1.863210,0.006924,0.005850
1.635023,1.864125,0.006929,0.005855
1.635015,1.864197,0.007002,0.005934
1.638461,1.869234,0.007144,0.006075
1.639278,1.869891,0.007257,0.006185
1.639394,1.869898,0.007302,0.006190
1.641838,1.874344,0.007346,0.006226
1.643660,1.878158,0.007489,0.006400
1.643714,1.879096,0.007632,0.006638
1.646037,1.883700,0.007844,0.006875
1.646497,1.884642,0.008094,0.007113
1.647135,1.884517,0.008345,0.007352
1.650062,1.888144,0.008558,0.007590
1.650742,1.892096,0.008703,0.007756
1.650779,1.891958,0.008848,0.007889
1.653667,1.898625,0.009060,0.008160
1.655588,1.900233,0.009351,0.008431
1.654966,1.900314,0.009575,0.008628
1.658186,1.904690,0.009760,0.008763
1.660055,1.906872,0.009974,0.008929
1.660685,1.906819,0.010326,0.009233
1.664712,1.913483,0.010787,0.009570
1.665650,1.916966,0.011082,0.009812
1.666269,1.917022,0.011338,0.010023
1.668517,1.919965,0.011634,0.010299
1.669967,1.922250,0.011961,0.010607
1.669982,1.922270,0.012357,0.011044
1.672530,1.925572,0.012823,0.011450
1.672978,1.929319,0.013330,0.011963
1.672897,1.929235,0.013906,0.012606
1.677128,1.933845,0.014624,0.013251
1.678365,1.937930,0.015272,0.013895
1.678414,1.937926,0.015991,0.014573
1.680986,1.943040,0.016319,0.014916
1.683946,1.945151,0.016696,0.015313
1.683937,1.945120,0.017050,0.015734
1.688327,1.947738,0.017318,0.016144
1.689497,1.950312,0.017742,0.016570
1.689172,1.950367,0.018210,0.017037
1.691679,1.957249,0.018644,0.017498
